!Mini-Circuits Laboratory
!Date: 11/3/2015 at 2:06:02 PM
!S2P DATA File Format
!Type: MMIC Amplifier
!Model: CMA-84+
!S/N: Unit 1
!Fixture: TB-829-84+ NO PORT EXTENSION.
!PIN OUT: PORT 1 - PIN 2, PORT 2 - PIN 7, GROUND - 1,3,4,5,6,8,Bottom Center Paddle
!TEST CONDITIONS: Temp= +85 (Deg C) RF Power= -25.00 (dBm) V limit=5(V) I limit=250(mA) Z=50 OHM
!Run H77400/ Date Code: 1448
!Network Analyzer: PNA-X N5242A S/N 71404 CAL DUE: 12/5/2015
!P.Supply/Multimeter: HP E3632A S/N 63249 CAL DUE: 12/11/2015
!Tested with: 
!
# Hz  S  dB  R  50
!Frequency    S11 dB        S11 Deg       S21 dB        S21 Deg       S12 dB        S12 Deg       S22 dB        S22 Deg       
10000000      -27.7516500   179.2676000   24.3394500    179.0991000   -31.2208900   1.3955010     -21.0763300   4.4740860     
15000000      -30.4638900   -156.8330000  24.3735000    179.5051000   -31.1782000   1.5763170     -19.9816700   -5.4307510    
20000000      -28.2567700   -176.9323000  24.3432800    178.0960000   -31.2273400   0.3336649     -21.0493700   -3.5175080    
25000000      -27.4147300   -179.9075000  24.3263300    177.3615000   -31.2417700   -0.0959394    -21.5087400   -5.1966030    
30000000      -27.8107000   -176.3187000  24.3528800    177.0466000   -31.2333700   -0.1364295    -21.1313700   -8.8659230    
35000000      -28.2719600   -175.9335000  24.3461500    176.6767000   -31.2696500   -0.0991462    -21.0404300   -10.9476900   
40000000      -27.5323500   -176.1048000  24.3423300    176.1138000   -31.2455300   -0.3074377    -21.2341300   -13.0549800   
45000000      -27.3441700   -176.2063000  24.3434000    175.5909000   -31.2478500   -0.4154899    -21.3523500   -14.9293400   
50000000      -27.2701400   -176.7311000  24.3479700    175.1356000   -31.2443200   -0.5067205    -21.3242400   -17.0291900   
55000000      -27.2131200   -175.2849000  24.3344300    174.7966000   -31.2221900   -0.7757636    -21.2544700   -19.7149000   
60000000      -27.0102100   -174.9396000  24.3320900    174.3219000   -31.2259600   -0.8715222    -21.3035600   -21.6109700   
65000000      -26.6925800   -175.8144000  24.3330100    173.8262000   -31.2215100   -0.9758992    -21.3327100   -23.7827900   
70000000      -26.5626100   -175.5524000  24.3322400    173.3326000   -31.2191000   -1.1191990    -21.3233900   -25.6113200   
75000000      -26.4411200   -175.4788000  24.3300400    172.8893000   -31.2273800   -1.1850710    -21.3414400   -27.8722000   
80000000      -26.4180500   -175.5643000  24.3246100    172.4030000   -31.2229600   -1.2674160    -21.3241000   -29.7917000   
85000000      -26.3466100   -174.7014000  24.3202300    171.9405000   -31.2244800   -1.3288940    -21.3068400   -31.8389100   
90000000      -26.2082300   -174.2701000  24.3166800    171.4612000   -31.2240700   -1.4634710    -21.2705800   -34.1066300   
95000000      -26.0970700   -173.0867000  24.3146900    170.9869000   -31.2216100   -1.5427490    -21.2228700   -36.0779700   
100000000     -25.9348200   -172.2857000  24.3111900    170.5324000   -31.2204700   -1.6210820    -21.1882600   -38.1311400   
105000000     -25.7614500   -171.3753000  24.3082000    170.0474000   -31.2166700   -1.7352170    -21.1084700   -40.2539500   
110000000     -25.6213700   -170.8728000  24.3072800    169.5377000   -31.2189800   -1.7809540    -21.0440600   -42.2250700   
115000000     -25.4603200   -170.4012000  24.3037200    169.0517000   -31.2139900   -1.8630840    -20.9407800   -44.2325800   
120000000     -25.3779800   -169.6037000  24.3005500    168.5878000   -31.2151800   -1.9824940    -20.8257800   -45.9366400   
125000000     -25.3227700   -169.1943000  24.2956400    168.1203000   -31.2130800   -2.0419990    -20.7059800   -47.6610000   
130000000     -25.2299200   -168.2212000  24.2939400    167.6617000   -31.2131400   -2.1113510    -20.6048800   -49.4109500   
135000000     -25.1446600   -167.5194000  24.2899900    167.1968000   -31.2070100   -2.1901780    -20.4608600   -51.0459700   
140000000     -25.0399700   -166.8991000  24.2860400    166.7216000   -31.2072000   -2.2615860    -20.3291500   -52.7305800   
145000000     -24.9783900   -166.0724000  24.2818100    166.2572000   -31.2044100   -2.3518160    -20.1771600   -54.1883300   
150000000     -24.9145900   -165.6655000  24.2744300    165.8196000   -31.2003800   -2.4576460    -20.0247500   -55.6436600   
155000000     -24.8755000   -165.0211000  24.2689800    165.3359000   -31.1999400   -2.5140660    -19.8753100   -57.1009200   
160000000     -24.8428800   -164.5838000  24.2634700    164.8740000   -31.1941600   -2.5903610    -19.7443300   -58.4469100   
165000000     -24.8501300   -163.6415000  24.2594400    164.4341000   -31.1931700   -2.6665330    -19.6011700   -59.6545900   
170000000     -24.8501100   -163.1420000  24.2576200    163.9526000   -31.1957600   -2.7184510    -19.4417400   -60.8553000   
175000000     -24.8091900   -162.5541000  24.2489700    163.5018000   -31.1869600   -2.8174050    -19.3056900   -62.1002800   
180000000     -24.8086700   -161.7862000  24.2438400    163.0368000   -31.1846000   -2.8582510    -19.1776200   -63.1739800   
185000000     -24.7562000   -160.9258000  24.2412100    162.5569000   -31.1767300   -2.9717170    -19.0027600   -64.2815500   
190000000     -24.7471600   -160.1481000  24.2372500    162.1199000   -31.1780200   -3.0333120    -18.8700600   -65.2742700   
195000000     -24.6933200   -159.6406000  24.2342000    161.6246000   -31.1761600   -3.1171210    -18.6929000   -66.2671100   
200000000     -24.6549600   -159.1158000  24.2279700    161.1755000   -31.1747600   -3.2057150    -18.5659400   -67.2652400   
205000000     -24.6736800   -158.3105000  24.2240700    160.7188000   -31.1655000   -3.2838150    -18.4027300   -68.1420400   
210000000     -24.6832500   -157.7817000  24.2145000    160.2744000   -31.1546000   -3.3258950    -18.2863700   -69.1789900   
215000000     -24.6314000   -156.8186000  24.2141800    159.8092000   -31.1564200   -3.4264960    -18.1153500   -70.0168400   
220000000     -24.6301100   -156.1904000  24.2071300    159.3493000   -31.1518100   -3.4998140    -17.9972300   -71.0146000   
225000000     -24.6657100   -155.6694000  24.2039100    158.9039000   -31.1479500   -3.5690710    -17.8655100   -71.7866100   
230000000     -24.5066100   -154.8788000  24.1953200    158.4235000   -31.1403800   -3.6540570    -17.7159900   -72.7693100   
235000000     -24.5869100   -154.8711000  24.1908200    157.9758000   -31.1432600   -3.7453980    -17.5898400   -73.5822800   
240000000     -24.5569100   -154.2134000  24.1857200    157.5058000   -31.1387200   -3.7792790    -17.4879200   -74.3584900   
245000000     -24.5404500   -154.2525000  24.1789100    157.0493000   -31.1310600   -3.9033850    -17.3595600   -75.1943800   
250000000     -24.5559000   -153.4274000  24.1736900    156.5892000   -31.1253900   -3.9958510    -17.2305300   -76.1007200   
255000000     -24.4847200   -153.0463000  24.1645300    156.1187000   -31.1202400   -4.0637960    -17.1134100   -76.9394100   
260000000     -24.4825200   -152.9999000  24.1609400    155.6680000   -31.1223900   -4.1308370    -17.0060500   -77.7991200   
265000000     -24.5235500   -151.9843000  24.1547700    155.2254000   -31.1114200   -4.2244870    -16.9019700   -78.3585600   
270000000     -24.3790500   -152.0493000  24.1520700    154.7573000   -31.1029100   -4.3183140    -16.7789000   -79.2467300   
275000000     -24.2891000   -151.3397000  24.1455000    154.2956000   -31.0989300   -4.3205840    -16.6776700   -80.1022500   
280000000     -24.3063000   -151.5792000  24.1426100    153.8450000   -31.1020300   -4.4509800    -16.5553200   -80.8592200   
285000000     -24.1890900   -151.3967000  24.1337200    153.3660000   -31.0898700   -4.5434370    -16.4618400   -81.7818100   
290000000     -24.1190000   -151.3874000  24.1269100    152.9150000   -31.0853900   -4.5990260    -16.3734400   -82.6197600   
295000000     -24.0109800   -151.8197000  24.1213500    152.4489000   -31.0706100   -4.7064720    -16.2666500   -83.3785600   
300000000     -23.9748600   -151.2638000  24.1141500    152.0031000   -31.0657400   -4.8283330    -16.1634100   -84.3220300   
305000000     -23.9868800   -150.7609000  24.1074000    151.5778000   -31.0672500   -4.8799610    -16.0667000   -84.9823300   
310000000     -23.9802700   -150.8854000  24.1071100    151.0949000   -31.0538100   -4.9246550    -15.9827700   -85.7267400   
315000000     -23.8821900   -150.8427000  24.0988300    150.6676000   -31.0513800   -5.0559860    -15.8968000   -86.5088100   
320000000     -23.7978200   -150.8573000  24.0892100    150.2085000   -31.0490900   -5.1374110    -15.7899600   -87.3897300   
325000000     -23.7848300   -150.8195000  24.0817900    149.7593000   -31.0396300   -5.2170760    -15.6976400   -88.0432700   
330000000     -23.6914100   -150.5500000  24.0749500    149.3075000   -31.0368700   -5.2865920    -15.6064800   -88.8783300   
335000000     -23.5884700   -149.8833000  24.0700000    148.8391000   -31.0243000   -5.3715730    -15.4999400   -89.5491700   
340000000     -23.5128200   -149.9261000  24.0602700    148.3757000   -31.0255200   -5.4275170    -15.4024400   -90.3875100   
345000000     -23.4741400   -149.9668000  24.0598100    147.9247000   -31.0228200   -5.5412800    -15.3142200   -91.0624900   
350000000     -23.3951900   -150.0433000  24.0479900    147.5008000   -31.0050800   -5.6252580    -15.2263300   -91.8055400   
355000000     -23.3258900   -150.0217000  24.0431400    147.0255000   -31.0033600   -5.6907450    -15.1387400   -92.5755500   
360000000     -23.2287800   -150.5953000  24.0328800    146.5555000   -30.9934100   -5.8025580    -15.0368300   -93.3826500   
365000000     -23.1544200   -150.0044000  24.0274500    146.1329000   -30.9794400   -5.8779100    -14.9669400   -94.0265300   
370000000     -22.9733600   -150.0529000  24.0215400    145.6519000   -30.9764100   -5.9894930    -14.8581800   -94.7708800   
375000000     -22.9838300   -150.4310000  24.0120600    145.2044000   -30.9666600   -6.0760580    -14.7786800   -95.5850400   
380000000     -22.8957100   -150.4056000  24.0036800    144.7313000   -30.9700200   -6.1308620    -14.6893500   -96.3610000   
385000000     -22.8313200   -150.4069000  24.0001900    144.3050000   -30.9543700   -6.2966280    -14.6125700   -97.0925100   
390000000     -22.7195100   -150.1916000  23.9898700    143.8559000   -30.9489700   -6.3730680    -14.5257900   -97.8038100   
395000000     -22.6892000   -150.7351000  23.9840400    143.4101000   -30.9424500   -6.4599070    -14.4364300   -98.5061600   
400000000     -22.5935600   -150.4391000  23.9725700    142.9230000   -30.9306500   -6.5395910    -14.3555200   -99.1595000   
405000000     -22.4422700   -151.2602000  23.9663900    142.4630000   -30.9253800   -6.6182680    -14.2770800   -99.7994400   
410000000     -22.4168400   -151.0207000  23.9561800    142.0258000   -30.9225400   -6.7294270    -14.1846000   -100.6188000  
415000000     -22.3839300   -151.2047000  23.9501100    141.5767000   -30.9187200   -6.8060330    -14.1137800   -101.2521000  
420000000     -22.2730900   -151.0973000  23.9409400    141.1318000   -30.9147700   -6.8541520    -14.0335000   -101.8445000  
425000000     -22.2506800   -150.6138000  23.9328000    140.6861000   -30.8995400   -7.0038760    -13.9374300   -102.4240000  
430000000     -22.1539300   -150.9873000  23.9263700    140.2296000   -30.8964200   -7.1058000    -13.8493800   -103.1106000  
435000000     -22.1125500   -150.5962000  23.9137800    139.8054000   -30.8849100   -7.1637280    -13.7704700   -103.6579000  
440000000     -22.0207800   -150.6332000  23.9068200    139.3543000   -30.8745300   -7.2919850    -13.6861400   -104.2018000  
445000000     -21.9218500   -151.1890000  23.8950200    138.8926000   -30.8766700   -7.4056690    -13.6027400   -104.8922000  
450000000     -21.9501500   -150.2869000  23.8870600    138.4916000   -30.8692900   -7.4289480    -13.5408000   -105.4803000  
455000000     -21.8643300   -150.6660000  23.8756000    138.0269000   -30.8532600   -7.5713650    -13.4613800   -106.0537000  
460000000     -21.7226700   -150.1005000  23.8699200    137.6003000   -30.8496600   -7.6786540    -13.3956100   -106.6323000  
465000000     -21.7507600   -149.7680000  23.8646600    137.1425000   -30.8350700   -7.7582790    -13.3248800   -107.1011000  
470000000     -21.6138500   -150.0293000  23.8525100    136.6926000   -30.8336000   -7.8411910    -13.2482700   -107.6257000  
475000000     -21.5702300   -150.1169000  23.8442100    136.2665000   -30.8189400   -7.9996220    -13.1761800   -108.2392000  
480000000     -21.5653300   -150.4833000  23.8355500    135.8131000   -30.8156700   -8.0273140    -13.1118700   -108.7566000  
485000000     -21.5187800   -150.1930000  23.8265200    135.3617000   -30.8059100   -8.1221520    -13.0422300   -109.3550000  
490000000     -21.3847600   -150.2525000  23.8192400    134.9119000   -30.7955600   -8.2394110    -12.9663300   -109.8139000  
495000000     -21.3663000   -150.5424000  23.8082700    134.4921000   -30.7902500   -8.3178420    -12.9082300   -110.4469000  
500000000     -21.3076800   -150.4921000  23.7994900    134.0313000   -30.7830800   -8.4134700    -12.8257200   -111.0447000  
505000000     -21.3295300   -150.4001000  23.7900600    133.5769000   -30.7779300   -8.5156080    -12.7612300   -111.6142000  
510000000     -21.2448400   -150.1656000  23.7813700    133.1425000   -30.7729200   -8.6136740    -12.6926900   -112.1298000  
515000000     -21.2180500   -150.2869000  23.7735300    132.6874000   -30.7559100   -8.6822340    -12.6289900   -112.6850000  
520000000     -21.1640900   -150.6318000  23.7657200    132.2338000   -30.7548000   -8.8134790    -12.5437700   -113.1587000  
525000000     -21.1621900   -150.2258000  23.7535500    131.8134000   -30.7444400   -8.9030990    -12.4996400   -113.8043000  
530000000     -21.0691100   -150.5621000  23.7394800    131.3824000   -30.7402000   -9.0288170    -12.4233900   -114.4330000  
535000000     -21.0106700   -150.2291000  23.7332900    130.9473000   -30.7313400   -9.0803000    -12.3556500   -114.8617000  
540000000     -20.9139200   -150.5601000  23.7239700    130.4979000   -30.7195500   -9.2153700    -12.2928900   -115.2938000  
545000000     -20.8685200   -150.2756000  23.7147700    130.0575000   -30.7102600   -9.3018150    -12.2302200   -115.7787000  
550000000     -20.8027500   -150.4203000  23.7034200    129.5953000   -30.6977600   -9.3821740    -12.1637200   -116.2539000  
555000000     -20.8239500   -150.4491000  23.6964200    129.1809000   -30.6910600   -9.5494330    -12.0987100   -116.6501000  
560000000     -20.7283500   -150.1718000  23.6889500    128.7354000   -30.6782900   -9.6148010    -12.0522100   -117.1131000  
565000000     -20.7394700   -150.3604000  23.6765800    128.3130000   -30.6708300   -9.7047010    -11.9990100   -117.6113000  
570000000     -20.6595600   -150.2708000  23.6649300    127.8738000   -30.6608300   -9.8363700    -11.9244400   -118.0486000  
575000000     -20.6026700   -150.0858000  23.6556500    127.4462000   -30.6496600   -9.9316310    -11.8704900   -118.5821000  
580000000     -20.6028100   -150.6387000  23.6446100    127.0069000   -30.6445800   -10.0397300   -11.8167500   -119.1150000  
585000000     -20.6404500   -150.4193000  23.6335600    126.5687000   -30.6472200   -10.1318100   -11.7606800   -119.5604000  
590000000     -20.5479400   -150.6220000  23.6239200    126.1356000   -30.6249800   -10.2380900   -11.7095100   -120.0387000  
595000000     -20.4982800   -150.6751000  23.6139300    125.7098000   -30.6207500   -10.3662100   -11.6564200   -120.5296000  
600000000     -20.4533100   -150.6510000  23.6064300    125.2523000   -30.6079400   -10.4479600   -11.5998900   -120.9790000  
605000000     -20.4715200   -151.1398000  23.5932600    124.8519000   -30.5967800   -10.5584400   -11.5527400   -121.5259000  
610000000     -20.3670300   -151.1500000  23.5853500    124.3948000   -30.5915900   -10.6936000   -11.4878300   -121.9534000  
615000000     -20.3603500   -151.5113000  23.5742700    123.9779000   -30.5770500   -10.7566800   -11.4442500   -122.5374000  
620000000     -20.3227200   -151.4925000  23.5617700    123.5497000   -30.5687100   -10.8786800   -11.3862400   -123.0670000  
625000000     -20.2424900   -151.7339000  23.5529500    123.1171000   -30.5537300   -11.0270300   -11.3286800   -123.5374000  
630000000     -20.2067200   -151.7940000  23.5426300    122.7019000   -30.5491800   -11.1200100   -11.2786600   -124.0165000  
635000000     -20.1936300   -152.0270000  23.5328300    122.2509000   -30.5421000   -11.2106200   -11.2248900   -124.5168000  
640000000     -20.1478300   -152.0931000  23.5197800    121.8432000   -30.5241500   -11.3109000   -11.1733100   -125.0421000  
645000000     -20.0532000   -152.3685000  23.5160800    121.3986000   -30.5234700   -11.4163500   -11.1101500   -125.4285000  
650000000     -19.9996300   -152.1798000  23.5053400    120.9616000   -30.5062000   -11.5498300   -11.0619600   -125.9259000  
655000000     -19.9521400   -152.5042000  23.4914600    120.5452000   -30.5001700   -11.7006000   -11.0120400   -126.4210000  
660000000     -19.9249300   -152.9234000  23.4792100    120.0842000   -30.4841900   -11.8290300   -10.9530800   -126.8875000  
665000000     -19.9069900   -152.7579000  23.4695200    119.6442000   -30.4826100   -11.9056600   -10.9120900   -127.3902000  
670000000     -19.8477400   -153.0188000  23.4615600    119.2135000   -30.4727600   -12.0587800   -10.8664300   -127.8209000  
675000000     -19.8475900   -153.1521000  23.4447100    118.7775000   -30.4574300   -12.1846400   -10.8269100   -128.2967000  
680000000     -19.7596100   -152.8665000  23.4387600    118.3570000   -30.4472500   -12.2376400   -10.7848500   -128.7432000  
685000000     -19.7600400   -153.1353000  23.4222900    117.9372000   -30.4407700   -12.3782300   -10.7383300   -129.2570000  
690000000     -19.7086600   -153.2655000  23.4135600    117.5090000   -30.4283100   -12.4994700   -10.6914200   -129.6549000  
695000000     -19.7023500   -153.5781000  23.4007900    117.0641000   -30.4188800   -12.6246100   -10.6600200   -130.1951000  
700000000     -19.6489900   -153.6863000  23.3898200    116.6579000   -30.4135600   -12.7339600   -10.6021000   -130.6032000  
705000000     -19.5643100   -153.8149000  23.3794900    116.2151000   -30.3915400   -12.8460000   -10.5657900   -131.0511000  
710000000     -19.5944500   -154.0495000  23.3675400    115.7901000   -30.3878300   -12.9785400   -10.5182300   -131.5214000  
715000000     -19.5299500   -154.3310000  23.3538900    115.3654000   -30.3755100   -13.0992500   -10.4748300   -132.0214000  
720000000     -19.4830600   -154.7351000  23.3418900    114.9322000   -30.3619300   -13.2070900   -10.4301500   -132.4843000  
725000000     -19.4687000   -154.5267000  23.3359800    114.5527000   -30.3536700   -13.3263400   -10.3891200   -132.9926000  
730000000     -19.4530100   -154.9444000  23.3216500    114.0937000   -30.3506500   -13.4404500   -10.3386900   -133.4535000  
735000000     -19.3307500   -155.0505000  23.3105000    113.6606000   -30.3395900   -13.5874900   -10.2973600   -133.9211000  
740000000     -19.3162200   -155.4163000  23.2992600    113.2431000   -30.3256100   -13.6954900   -10.2499600   -134.3892000  
745000000     -19.3098600   -155.5779000  23.2856700    112.8379000   -30.3190300   -13.8054700   -10.2073600   -134.8531000  
750000000     -19.2481800   -155.8397000  23.2724200    112.4057000   -30.3074900   -13.9290000   -10.1605400   -135.2984000  
755000000     -19.2205800   -155.9924000  23.2599600    111.9920000   -30.2966700   -14.0397600   -10.1173700   -135.7300000  
760000000     -19.2228700   -156.1092000  23.2467600    111.5841000   -30.2867400   -14.1566200   -10.0734400   -136.2083000  
765000000     -19.1726600   -156.3371000  23.2367700    111.1513000   -30.2778500   -14.3031100   -10.0355100   -136.5812000  
770000000     -19.1022000   -156.1987000  23.2263600    110.7465000   -30.2637500   -14.4035100   -9.9966870    -137.0070000  
775000000     -19.0672600   -156.1676000  23.2141300    110.3465000   -30.2632900   -14.4982900   -9.9588170    -137.4624000  
780000000     -19.0034800   -156.3598000  23.2037600    109.9091000   -30.2438900   -14.6289600   -9.9225170    -137.8053000  
785000000     -18.9972700   -156.4984000  23.1878500    109.5067000   -30.2355200   -14.7724200   -9.8852800    -138.2306000  
790000000     -18.9782900   -156.5675000  23.1748500    109.0866000   -30.2208900   -14.8783100   -9.8500150    -138.6568000  
795000000     -18.9406300   -156.6508000  23.1643900    108.6736000   -30.2137200   -15.0079800   -9.8143470    -139.0943000  
800000000     -18.8939700   -156.8890000  23.1502500    108.2491000   -30.2021800   -15.1219800   -9.7808130    -139.5361000  
805000000     -18.8794200   -157.1615000  23.1367200    107.8106000   -30.1880900   -15.2678000   -9.7532380    -139.9526000  
810000000     -18.8620100   -157.1734000  23.1281200    107.4150000   -30.1796700   -15.4168700   -9.7177780    -140.3804000  
815000000     -18.8205900   -157.5692000  23.1157800    106.9816000   -30.1708900   -15.5173900   -9.6746540    -140.7793000  
820000000     -18.8107200   -157.8808000  23.1021300    106.5616000   -30.1613700   -15.6660500   -9.6438120    -141.2584000  
825000000     -18.7767200   -158.2589000  23.0901800    106.1438000   -30.1509700   -15.7382900   -9.6042430    -141.7149000  
830000000     -18.7090600   -158.2170000  23.0787700    105.7182000   -30.1354600   -15.9056900   -9.5717430    -142.1262000  
835000000     -18.7245800   -158.5389000  23.0659800    105.3170000   -30.1327600   -16.0528000   -9.5304600    -142.6034000  
840000000     -18.6943800   -158.7683000  23.0551100    104.8972000   -30.1175500   -16.1636800   -9.4925730    -143.0805000  
845000000     -18.6400300   -158.9751000  23.0435100    104.4721000   -30.1105400   -16.2992500   -9.4534470    -143.4518000  
850000000     -18.6222700   -159.2039000  23.0318900    104.0668000   -30.0962300   -16.4413100   -9.4192570    -143.9077000  
855000000     -18.6083100   -159.4040000  23.0181700    103.6649000   -30.0857300   -16.5832400   -9.3832980    -144.3534000  
860000000     -18.5702200   -159.7909000  23.0054900    103.2480000   -30.0753900   -16.7000800   -9.3497690    -144.7724000  
865000000     -18.5015000   -159.9393000  22.9894300    102.8307000   -30.0704700   -16.7958500   -9.3115780    -145.1542000  
870000000     -18.4920100   -159.9389000  22.9795400    102.4043000   -30.0534600   -16.9311800   -9.2728150    -145.5536000  
875000000     -18.4647800   -160.2087000  22.9657600    102.0107000   -30.0452500   -17.0940900   -9.2405820    -146.0073000  
880000000     -18.4127400   -160.4163000  22.9524200    101.6042000   -30.0315600   -17.1936700   -9.2060960    -146.3902000  
885000000     -18.3833600   -160.4414000  22.9396200    101.2022000   -30.0235100   -17.3317300   -9.1780150    -146.7759000  
890000000     -18.3455800   -160.2811000  22.9279000    100.8063000   -30.0101000   -17.4353400   -9.1430440    -147.1811000  
895000000     -18.2952900   -160.4641000  22.9176800    100.3799000   -30.0042200   -17.5665400   -9.1190870    -147.5932000  
900000000     -18.2618100   -160.6294000  22.9078100    99.9684200    -29.9871000   -17.7333600   -9.0919030    -147.9874000  
905000000     -18.2586400   -161.1108000  22.8878600    99.5512800    -29.9785700   -17.8481300   -9.0604410    -148.3697000  
910000000     -18.2403900   -161.3396000  22.8775600    99.1331900    -29.9624800   -18.0034400   -9.0298710    -148.7614000  
915000000     -18.2161200   -161.3038000  22.8668700    98.7316300    -29.9556700   -18.1121100   -9.0074480    -149.1918000  
920000000     -18.1909400   -161.5844000  22.8518500    98.3321500    -29.9464000   -18.2513200   -8.9815230    -149.5915000  
925000000     -18.2123500   -161.7976000  22.8387600    97.9449800    -29.9360200   -18.3564800   -8.9532210    -149.9979000  
930000000     -18.1716400   -161.9856000  22.8245000    97.5276600    -29.9256900   -18.5155500   -8.9196170    -150.4173000  
935000000     -18.1106000   -162.0395000  22.8142000    97.1373500    -29.9123500   -18.6135300   -8.8975350    -150.7973000  
940000000     -18.0943800   -162.4664000  22.8010900    96.7153400    -29.9009000   -18.7747500   -8.8651630    -151.1925000  
945000000     -18.0454900   -162.6023000  22.7869500    96.3227800    -29.8875300   -18.8895000   -8.8347570    -151.6012000  
950000000     -18.0640700   -163.0124000  22.7753100    95.8998400    -29.8832200   -19.0431000   -8.8012680    -152.0289000  
955000000     -18.0135400   -163.0070000  22.7606700    95.5080600    -29.8680900   -19.1706300   -8.7677150    -152.4293000  
960000000     -17.9950500   -163.2710000  22.7503400    95.0998700    -29.8573900   -19.3022300   -8.7365640    -152.8651000  
965000000     -17.9551600   -163.4723000  22.7375200    94.6821200    -29.8474500   -19.4271300   -8.7078260    -153.2959000  
970000000     -17.9479700   -163.9495000  22.7211300    94.2839000    -29.8368900   -19.5766800   -8.6776260    -153.6628000  
975000000     -17.8948900   -164.1806000  22.7099600    93.8792700    -29.8238400   -19.7165800   -8.6495420    -154.0604000  
980000000     -17.8727600   -164.2290000  22.6973400    93.4884600    -29.8183600   -19.8938800   -8.6188200    -154.4823000  
985000000     -17.8779400   -164.6682000  22.6818000    93.0787400    -29.8054700   -20.0242500   -8.5887810    -154.8494000  
990000000     -17.8049700   -164.7357000  22.6723200    92.6526900    -29.7959300   -20.1455500   -8.5632130    -155.2348000  
995000000     -17.8283400   -164.7125000  22.6575200    92.2974000    -29.7826800   -20.2495200   -8.5404600    -155.6108000  
1000000000    -17.7865200   -164.9008000  22.6434200    91.8846700    -29.7686000   -20.3807000   -8.5145930    -155.9970000  
1025000000    -17.6598700   -165.9264000  22.5827600    89.8726300    -29.7179600   -21.1164800   -8.4055580    -157.9528000  
1050000000    -17.5523500   -166.8799000  22.5134400    87.8915900    -29.6600300   -21.8586500   -8.2939670    -159.9609000  
1075000000    -17.4158800   -168.2401000  22.4503900    85.8728900    -29.5997700   -22.5817800   -8.1637060    -162.0069000  
1100000000    -17.2669500   -169.4502000  22.3796300    83.9138300    -29.5484600   -23.2984400   -8.0495940    -163.8824000  
1125000000    -17.1731400   -170.3992000  22.3093500    81.9499900    -29.4909600   -24.0172600   -7.9470590    -165.6839000  
1150000000    -17.0386800   -171.1623000  22.2455800    80.0092000    -29.4406500   -24.7556900   -7.8521550    -167.6258000  
1175000000    -16.9612200   -172.6432000  22.1724500    78.0528600    -29.3849000   -25.5365200   -7.7561590    -169.5299000  
1200000000    -16.8593300   -173.5883000  22.1064000    76.1161400    -29.3304200   -26.2660300   -7.6571680    -171.3599000  
1225000000    -16.7881800   -174.4850000  22.0335400    74.2506600    -29.2750400   -26.9928600   -7.5692270    -173.0721000  
1250000000    -16.6485800   -175.3464000  21.9720300    72.3085600    -29.2179200   -27.7695000   -7.4926400    -174.8638000  
1275000000    -16.5886200   -176.3843000  21.9025400    70.3942700    -29.1632600   -28.5356000   -7.4197060    -176.7478000  
1300000000    -16.4524400   -177.6728000  21.8353700    68.4527100    -29.1062500   -29.3420700   -7.3407670    -178.5532000  
1325000000    -16.3850700   -178.5753000  21.7641900    66.6039500    -29.0525700   -30.1148900   -7.2629930    179.7321000   
1350000000    -16.3025200   -179.4381000  21.7006100    64.6228600    -28.9936100   -30.7722100   -7.2005980    177.9586000   
1375000000    -16.2215000   179.5663000   21.6281100    62.8073700    -28.9362700   -31.6735700   -7.1413530    176.1364000   
1400000000    -16.1613900   178.4944000   21.5633900    61.0021700    -28.8862100   -32.5453900   -7.0715820    174.3052000   
1425000000    -16.1255000   177.1213000   21.4907500    59.0941300    -28.8327200   -33.3369600   -7.0053780    172.5508000   
1450000000    -16.0544600   176.3076000   21.4264500    57.2330700    -28.7760000   -34.1070900   -6.9419330    170.8150000   
1475000000    -15.9613000   175.1832000   21.3558600    55.3117400    -28.7229200   -34.8699400   -6.8912730    169.0774000   
1500000000    -15.8618100   174.0798000   21.2864900    53.4559700    -28.6650100   -35.7122500   -6.8305540    167.3092000   
1525000000    -15.8156000   172.9819000   21.2181400    51.7345000    -28.6182800   -36.6824000   -6.7715660    165.5872000   
1550000000    -15.8038300   171.8211000   21.1444600    49.9386600    -28.5630400   -37.4665300   -6.7201520    164.0028000   
1575000000    -15.7128100   170.9547000   21.0814100    48.1260100    -28.5060500   -38.3432400   -6.6766420    162.3464000   
1600000000    -15.6643300   169.8484000   21.0114600    46.3106500    -28.4531000   -39.1622800   -6.6411410    160.6574000   
1625000000    -15.5871500   168.9286000   20.9428900    44.5048800    -28.3952600   -40.0083600   -6.6050590    158.9357000   
1650000000    -15.5686200   167.7037000   20.8765700    42.7009900    -28.3459600   -40.8644000   -6.5644820    157.2775000   
1675000000    -15.5042000   166.5819000   20.8089300    40.8987200    -28.2934500   -41.7456700   -6.5165930    155.5539000   
1700000000    -15.4297500   165.3732000   20.7370400    39.1003700    -28.2453400   -42.6084100   -6.4870550    153.8594000   
1725000000    -15.3846500   164.4446000   20.6698100    37.3493000    -28.1871400   -43.4453800   -6.4542480    152.2178000   
1750000000    -15.3652700   163.4505000   20.5989600    35.5448800    -28.1435800   -44.3355000   -6.4198390    150.5522000   
1775000000    -15.3095800   162.5738000   20.5343100    33.8387800    -28.0797700   -45.1693200   -6.3815440    148.8903000   
1800000000    -15.2581700   161.2126000   20.4677800    32.0415000    -28.0345700   -46.0630900   -6.3412600    147.2662000   
1825000000    -15.2379800   160.3811000   20.3959900    30.2998100    -27.9827900   -46.9456100   -6.3101010    145.6646000   
1850000000    -15.2114600   159.4188000   20.3365900    28.5504400    -27.9244700   -47.8184700   -6.2830810    144.0406000   
1875000000    -15.1793300   158.3132000   20.2692200    26.7912400    -27.8726100   -48.6943700   -6.2484360    142.4471000   
1900000000    -15.1636000   157.1979000   20.2043900    25.0654300    -27.8186600   -49.5956700   -6.2207090    140.8493000   
1925000000    -15.1199900   156.0179000   20.1362200    23.3205500    -27.7716200   -50.4850800   -6.1978140    139.2884000   
1950000000    -15.0635200   155.1459000   20.0721700    21.6040500    -27.7164100   -51.4117500   -6.1856400    137.6301000   
1975000000    -15.0633500   153.8916000   20.0010800    19.8776000    -27.6709400   -52.2961800   -6.1766770    136.0567000   
2000000000    -15.0212400   152.8948000   19.9367500    18.1378200    -27.6095900   -53.2087600   -6.1387680    134.3980000   
2025000000    -14.9686700   151.4658000   19.8749800    16.3790200    -27.5613200   -54.1568400   -6.1167750    132.8003000   
2050000000    -14.9299200   150.6905000   19.8076000    14.6942700    -27.5164300   -55.0613900   -6.0899120    131.2485000   
2075000000    -14.8926800   149.5756000   19.7436600    12.9623400    -27.4609200   -55.9981200   -6.0796600    129.6339000   
2100000000    -14.9015800   148.5192000   19.6722000    11.2921500    -27.4114800   -56.8677800   -6.0618870    128.0640000   
2125000000    -14.8919800   147.4642000   19.6109200    9.5963150     -27.3585000   -57.8117400   -6.0281390    126.4791000   
2150000000    -14.8239900   146.3459000   19.5490000    7.9125840     -27.3125600   -58.7566900   -6.0059130    124.9991000   
2175000000    -14.7911100   145.2791000   19.4781700    6.1931750     -27.2708200   -59.6798100   -6.0018420    123.5170000   
2200000000    -14.8037700   144.4623000   19.4179400    4.5743580     -27.2194100   -60.5527200   -5.9975760    122.0332000   
2225000000    -14.7918700   143.4109000   19.3570700    2.9163670     -27.1562900   -61.5149300   -5.9776220    120.4686000   
2250000000    -14.7062000   142.2387000   19.2948200    1.1916820     -27.1107500   -62.4557400   -5.9630380    118.9628000   
2275000000    -14.7130900   141.6121000   19.2346200    -0.4056066    -27.0566500   -63.3432200   -5.9590160    117.5474000   
2300000000    -14.6866100   140.4959000   19.1761700    -2.1397460    -27.0032900   -64.3109400   -5.9644900    115.9979000   
2325000000    -14.6876200   139.5954000   19.1201400    -3.7720130    -26.9556500   -65.2880900   -5.9581440    114.3747000   
2350000000    -14.6873400   138.3844000   19.0514900    -5.4660750    -26.9023500   -66.2366000   -5.9402320    112.8236000   
2375000000    -14.6519400   137.2434000   18.9894000    -7.1562740    -26.8574900   -67.1945600   -5.9323710    111.3421000   
2400000000    -14.6391000   136.4196000   18.9289000    -8.7749150    -26.8085000   -68.1823200   -5.9368750    109.7904000   
2425000000    -14.6263100   135.3336000   18.8702600    -10.4275500   -26.7537200   -69.1053800   -5.9359930    108.2821000   
2450000000    -14.6204800   134.2751000   18.8130500    -12.1010700   -26.7094100   -70.1234600   -5.9179070    106.6896000   
2475000000    -14.6099400   133.2849000   18.7510800    -13.7007300   -26.6595100   -71.0396800   -5.9066040    105.2974000   
2500000000    -14.5692100   132.4017000   18.6992800    -15.3396300   -26.6000100   -71.9940100   -5.9056880    103.8591000   
2525000000    -14.6000600   131.1958000   18.6276300    -17.0123300   -26.5527300   -72.9564700   -5.9217490    102.3482000   
2550000000    -14.5643800   130.2393000   18.5756100    -18.6527600   -26.5107200   -73.9569200   -5.9247860    100.7267000   
2575000000    -14.5664800   129.1436000   18.5169600    -20.2856000   -26.4529300   -74.9256500   -5.9152510    99.2498300    
2600000000    -14.5513200   128.0293000   18.4539900    -21.9154900   -26.4049300   -75.9413200   -5.9162960    97.7507600    
2625000000    -14.4853700   126.9546000   18.4071800    -23.5799500   -26.3568000   -76.9353600   -5.9303530    96.1980100    
2650000000    -14.5245700   125.9875000   18.3394600    -25.2029900   -26.3073200   -77.9245500   -5.9382700    94.6085000    
2675000000    -14.4963700   124.8021000   18.2834400    -26.8629000   -26.2665400   -78.9642700   -5.9301780    92.9730100    
2700000000    -14.5195300   123.9099000   18.2239500    -28.4463900   -26.2148500   -79.8996400   -5.9237950    91.5525700    
2725000000    -14.5023500   122.7895000   18.1657700    -30.0594500   -26.1633900   -80.8859700   -5.9331490    90.1260300    
2750000000    -14.4889300   121.8033000   18.1132700    -31.7050100   -26.1162000   -81.8742400   -5.9403950    88.5952100    
2775000000    -14.4811300   120.5858000   18.0555400    -33.3207900   -26.0638800   -82.9292900   -5.9332530    86.9529300    
2800000000    -14.4808000   119.4586000   17.9946600    -34.9325800   -26.0218500   -83.9177600   -5.9345910    85.5102400    
2825000000    -14.4775800   118.5818000   17.9452800    -36.5455900   -25.9695100   -84.9267000   -5.9313330    84.0696600    
2850000000    -14.4724600   117.3565000   17.8903100    -38.1706800   -25.9223300   -85.9500000   -5.9499240    82.5145300    
2875000000    -14.4181800   116.3522000   17.8377000    -39.7746300   -25.8751100   -87.0017200   -5.9639780    80.9393400    
2900000000    -14.4218600   115.0220000   17.7761500    -41.4228100   -25.8269800   -88.0403700   -5.9574700    79.3366700    
2925000000    -14.4367500   113.9490000   17.7218600    -43.0403400   -25.7841100   -89.0484500   -5.9651370    77.8694800    
2950000000    -14.4101900   112.9523000   17.6692900    -44.6510400   -25.7359400   -90.1141100   -5.9783400    76.3933300    
2975000000    -14.4053600   111.5500000   17.6097000    -46.2658600   -25.6917200   -91.1512100   -5.9956970    74.7840200    
3000000000    -14.4120700   110.4634000   17.5516300    -47.8868700   -25.6500700   -92.1619900   -6.0067410    73.1317300    
3025000000    -14.4470900   109.4422000   17.4892100    -49.6328600   -25.6019900   -93.1773600   -5.9991910    71.4835800    
3050000000    -14.4329700   108.4990000   17.4404100    -51.0447000   -25.5534900   -94.2271600   -6.0038920    70.1994700    
3075000000    -14.4493200   107.4223000   17.3821600    -52.6409400   -25.5085100   -95.2329500   -6.0267620    68.7004600    
3100000000    -14.4202500   106.2410000   17.3302800    -54.2125900   -25.4594900   -96.2964800   -6.0341600    67.1411500    
3125000000    -14.3875800   105.0175000   17.2821300    -55.8525000   -25.4165300   -97.3718900   -6.0353470    65.5033300    
3150000000    -14.4284300   103.8262000   17.2194600    -57.4678800   -25.3684400   -98.4141700   -6.0401830    64.0174600    
3175000000    -14.4077400   102.6567000   17.1679500    -59.0742200   -25.3227900   -99.4522200   -6.0512900    62.5044700    
3200000000    -14.3926800   101.4406000   17.1163100    -60.6441600   -25.2775000   -100.5367000  -6.0648790    60.9197000    
3225000000    -14.3580000   100.1251000   17.0642000    -62.3260700   -25.2368000   -101.6492000  -6.0756440    59.2912900    
3250000000    -14.3908300   98.9937800    17.0025000    -63.8654500   -25.1942400   -102.6854000  -6.0802190    57.7389100    
3275000000    -14.4053500   97.8341400    16.9472400    -65.4669300   -25.1530000   -103.7614000  -6.0872430    56.1746100    
3300000000    -14.4108500   96.4580200    16.8932700    -67.0771900   -25.1184300   -104.8066000  -6.0982530    54.6279300    
3325000000    -14.3945900   95.2902100    16.8377500    -68.6261700   -25.0724500   -105.8768000  -6.1139110    53.0768200    
3350000000    -14.3606100   94.1086000    16.7762200    -70.2488900   -25.0315200   -106.9465000  -6.1274450    51.5490800    
3375000000    -14.3871100   93.2605100    16.7293500    -71.7814900   -24.9895900   -108.0253000  -6.1373650    50.0332900    
3400000000    -14.4461300   91.9910400    16.6683700    -73.3400000   -24.9431800   -109.0638000  -6.1451830    48.5303600    
3425000000    -14.4098400   90.5761000    16.6154800    -74.9573700   -24.8990200   -110.1286000  -6.1554970    46.9586100    
3450000000    -14.3727800   89.2678400    16.5722700    -76.5583000   -24.8659500   -111.2459000  -6.1686430    45.3179200    
3475000000    -14.3656700   88.2804700    16.5154800    -78.1295700   -24.8223900   -112.2751000  -6.1778290    43.7918200    
3500000000    -14.3835100   87.0171700    16.4600200    -79.7061300   -24.7820800   -113.4316000  -6.1740660    42.2036200    
3525000000    -14.4703700   85.4877600    16.3908000    -81.2999600   -24.7512700   -114.4624000  -6.1856470    40.6814800    
3550000000    -14.4427800   84.4311800    16.3416300    -82.8074500   -24.7113400   -115.4950000  -6.2034200    39.1690900    
3575000000    -14.4237700   83.2633300    16.2857400    -84.4014400   -24.6703700   -116.5792000  -6.2098030    37.6468400    
3600000000    -14.4281700   82.2192100    16.2352500    -85.9781800   -24.6189300   -117.6930000  -6.2015660    36.1318700    
3625000000    -14.4724000   80.9677000    16.1770100    -87.5211000   -24.5936200   -118.7877000  -6.2121400    34.6359600    
3650000000    -14.4915400   79.8074800    16.1290300    -89.0263900   -24.5462000   -119.8553000  -6.2176180    33.2651000    
3675000000    -14.4553600   78.6042600    16.0803100    -90.6812100   -24.5140800   -120.9891000  -6.2341600    31.6644900    
3700000000    -14.5309200   77.3893000    16.0074900    -92.1640900   -24.4723300   -122.0530000  -6.2544750    30.1008600    
3725000000    -14.5421300   76.1218500    15.9626300    -93.7869800   -24.4435400   -123.1254000  -6.2565650    28.6039300    
3750000000    -14.5913800   75.0650500    15.9142100    -95.2438100   -24.3922800   -124.1529000  -6.2554830    27.2270700    
3775000000    -14.5524700   73.7666500    15.8586900    -96.8432100   -24.3581300   -125.2875000  -6.2785070    25.6373700    
3800000000    -14.5605300   72.4022000    15.8100400    -98.4058600   -24.3255700   -126.3540000  -6.2989810    24.1518400    
3825000000    -14.5870600   71.1669200    15.7547700    -99.9623400   -24.2830900   -127.4861000  -6.2901220    22.5387900    
3850000000    -14.6436400   69.9631000    15.6980000    -101.5409000  -24.2570400   -128.5892000  -6.2951890    21.0542800    
3875000000    -14.6377700   68.7360600    15.6549700    -103.0435000  -24.2078100   -129.7098000  -6.2936390    19.6790400    
3900000000    -14.6545800   67.1349000    15.5881100    -104.6386000  -24.1792000   -130.7630000  -6.3197300    18.1375800    
3925000000    -14.6676500   66.1487200    15.5452700    -106.1308000  -24.1378700   -131.8881000  -6.3285230    16.6465200    
3950000000    -14.7366500   64.9409600    15.4867800    -107.6836000  -24.0971500   -132.9528000  -6.3267240    15.2631800    
3975000000    -14.7379100   63.3937300    15.4335800    -109.2109000  -24.0645400   -134.0369000  -6.3410600    13.8754000    
4000000000    -14.7361800   62.3765600    15.3758200    -110.7153000  -24.0319200   -135.1845000  -6.3815360    12.3211800    
4025000000    -14.6987100   61.1616500    15.3346600    -112.2214000  -23.9905400   -136.2564000  -6.4039140    10.8712400    
4050000000    -14.6859000   59.8286100    15.2872600    -113.8637000  -23.9471600   -137.3641000  -6.3939140    9.2385570     
4075000000    -14.7883400   58.5815200    15.2228600    -115.3398000  -23.9221600   -138.4572000  -6.4093710    7.7984930     
4100000000    -14.7636900   57.2789600    15.1804900    -116.9212000  -23.8775600   -139.5499000  -6.4287110    6.3807620     
4125000000    -14.7796500   55.9618600    15.1334100    -118.4466000  -23.8443900   -140.7323000  -6.4456890    4.8039750     
4150000000    -14.7537400   54.8182700    15.0801600    -120.0004000  -23.8153700   -141.8657000  -6.4555130    3.1170990     
4175000000    -14.8402500   53.7155100    15.0206500    -121.4523000  -23.7823200   -142.8923000  -6.4616670    1.7710770     
4200000000    -14.8498300   52.2804500    14.9702700    -123.0450000  -23.7423700   -144.0188000  -6.4610730    0.4678654     
4225000000    -14.8837300   50.9533300    14.9181800    -124.5791000  -23.7074400   -145.1765000  -6.4885150    -1.0430740    
4250000000    -14.8933500   49.8068000    14.8705800    -126.0768000  -23.6697600   -146.1940000  -6.5051530    -2.5692820    
4275000000    -14.8856600   48.5888700    14.8214500    -127.5896000  -23.6349900   -147.3749000  -6.5053130    -4.0765820    
4300000000    -14.9428700   47.4468700    14.7691600    -129.1257000  -23.6058900   -148.4426000  -6.5115320    -5.3287020    
4325000000    -14.9607400   46.4169800    14.7247100    -130.6297000  -23.5714300   -149.5914000  -6.5413200    -6.7283670    
4350000000    -15.0330800   45.0442200    14.6623300    -132.1312000  -23.5342700   -150.6243000  -6.5776230    -8.2262660    
4375000000    -14.9989300   43.8428900    14.6294300    -133.6770000  -23.4970400   -151.7767000  -6.5767240    -9.8385590    
4400000000    -15.0375000   42.5038100    14.5730300    -135.2041000  -23.4672300   -152.9007000  -6.5851860    -11.2493800   
4425000000    -15.1096800   41.4017900    14.5187000    -136.6649000  -23.4259100   -154.0132000  -6.5928540    -12.6104700   
4450000000    -15.1274600   40.1082600    14.4710900    -138.2193000  -23.3924900   -155.1731000  -6.6220530    -14.1140400   
4475000000    -15.1715800   38.8158500    14.4226500    -139.7488000  -23.3578500   -156.2977000  -6.6265000    -15.6945700   
4500000000    -15.2271400   37.4434700    14.3692200    -141.2474000  -23.3305800   -157.3769000  -6.6329600    -17.1202800   
4525000000    -15.2716900   36.3209800    14.3258800    -142.7286000  -23.2910300   -158.4877000  -6.6373030    -18.3727000   
4550000000    -15.3310100   34.8495900    14.2762100    -144.2850000  -23.2539700   -159.7042000  -6.6674340    -19.8069100   
4575000000    -15.3710700   33.3201000    14.2239500    -145.8500000  -23.2188700   -160.7799000  -6.6894480    -21.2827100   
4600000000    -15.3654900   32.0064800    14.1839900    -147.3828000  -23.1857600   -161.9227000  -6.6923820    -22.9005400   
4625000000    -15.4511700   30.8404600    14.1300300    -148.8082000  -23.1546000   -163.0530000  -6.7074950    -24.2417600   
4650000000    -15.5070300   29.3780000    14.0785200    -150.3513000  -23.1202700   -164.1998000  -6.7374180    -25.6109400   
4675000000    -15.5488800   27.7320400    14.0346300    -151.8776000  -23.0878500   -165.3923000  -6.7711880    -27.2840100   
4700000000    -15.5294200   26.2790500    13.9935400    -153.4167000  -23.0431000   -166.4891000  -6.7851110    -28.8938200   
4725000000    -15.5541800   24.7477700    13.9433900    -154.9364000  -23.0161700   -167.6825000  -6.7831050    -30.4785100   
4750000000    -15.6301500   23.0187200    13.8893300    -156.4710000  -22.9868400   -168.8254000  -6.7868320    -31.9339100   
4775000000    -15.6632600   21.5957900    13.8458400    -157.9820000  -22.9583500   -169.9567000  -6.8196950    -33.4168400   
4800000000    -15.7169400   20.0287300    13.7910500    -159.3760000  -22.9207800   -171.0347000  -6.8384750    -34.9546200   
4825000000    -15.6783500   18.0693700    13.7369400    -161.0039000  -22.8904900   -172.2480000  -6.8317790    -36.6007500   
4850000000    -15.7112100   17.0943200    13.6936600    -162.4189000  -22.8664300   -173.3774000  -6.8428100    -38.0542900   
4875000000    -15.7150300   15.5228300    13.6489800    -164.0109000  -22.8304100   -174.6331000  -6.8641990    -39.5437000   
4900000000    -15.7597000   13.6089800    13.5985800    -165.5618000  -22.8025500   -175.6858000  -6.8884440    -41.0062700   
4925000000    -15.8105900   12.2622900    13.5479400    -166.9944000  -22.7732800   -176.8548000  -6.9011240    -42.6166400   
4950000000    -15.7595500   10.4056800    13.4973700    -168.5701000  -22.7428000   -178.0351000  -6.9143040    -44.0834200   
4975000000    -15.8005700   9.3901910     13.4560100    -170.0212000  -22.7174100   -179.1659000  -6.9307530    -45.5621300   
5000000000    -15.8339400   7.4434530     13.3896500    -171.5795000  -22.6903800   179.6551000   -6.9564940    -47.1405400   
5025000000    -15.8634800   6.3937140     13.3565800    -172.9948000  -22.6559500   178.5446000   -6.9698210    -48.6538800   
5050000000    -15.8819300   4.2788880     13.2974500    -174.5552000  -22.6285300   177.3165000   -6.9743710    -50.2196400   
5075000000    -15.9140100   3.1235010     13.2484700    -175.9865000  -22.6093300   176.1987000   -6.9909440    -51.7042100   
5100000000    -15.8930400   1.5722200     13.2026600    -177.5455000  -22.5647500   175.0537000   -7.0106790    -53.2236000   
5125000000    -15.9399800   -0.1639147    13.1504700    -179.0507000  -22.5431700   173.9050000   -7.0190820    -54.6845200   
5150000000    -15.9430400   -1.2759570    13.1074800    179.4985000   -22.5141900   172.7107000   -7.0156160    -56.2894200   
5175000000    -16.0042300   -2.5797400    13.0512000    178.0328000   -22.5011500   171.6072000   -7.0438680    -57.6459000   
5200000000    -16.0069200   -4.0631550    13.0098800    176.5049000   -22.4548400   170.4277000   -7.0502200    -58.9923800   
5225000000    -16.1079600   -5.6531700    12.9538500    175.0368000   -22.4337500   169.2418000   -7.0749090    -60.5787200   
5250000000    -16.1355000   -6.9904460    12.9122100    173.5420000   -22.4024600   168.1229000   -7.0853110    -62.0643900   
5275000000    -16.1764600   -8.5437580    12.8646800    172.0437000   -22.3713500   166.9760000   -7.0944100    -63.5107000   
5300000000    -16.2704600   -9.9951550    12.8139200    170.5866000   -22.3476300   165.7947000   -7.1039360    -64.9969000   
5325000000    -16.3226700   -11.6060500   12.7662200    169.0334000   -22.3216900   164.6182000   -7.1317640    -66.4732700   
5350000000    -16.3905600   -13.1172600   12.7254700    167.6022000   -22.2811400   163.5395000   -7.1290090    -67.9383700   
5375000000    -16.4600200   -15.3804600   12.6698300    166.0615000   -22.2550800   162.2720000   -7.1209440    -69.5752000   
5400000000    -16.5128200   -16.9896000   12.6241800    164.5933000   -22.2338500   161.1405000   -7.1296470    -71.0084000   
5425000000    -16.5323800   -18.8069600   12.5819400    163.0396000   -22.2003900   159.9427000   -7.1266240    -72.3927800   
5450000000    -16.5815000   -20.8729900   12.5284600    161.5723000   -22.1834200   158.7504000   -7.1463090    -73.8267500   
5475000000    -16.6252200   -22.7422100   12.4754800    160.1407000   -22.1524400   157.5788000   -7.1621590    -75.3101300   
5500000000    -16.6168700   -24.5354100   12.4233900    158.6673000   -22.1357600   156.4629000   -7.1964550    -76.7226200   
5525000000    -16.6129500   -25.7992500   12.3895900    157.2164000   -22.0949300   155.2943000   -7.1991780    -78.2216300   
5550000000    -16.5620200   -27.7585800   12.3314000    155.7023000   -22.0703200   154.1184000   -7.2428280    -79.7058000   
5575000000    -16.5877700   -29.0447100   12.2951800    154.2272000   -22.0456900   152.9260000   -7.2631210    -81.1943000   
5600000000    -16.6276000   -30.5312500   12.2550800    152.7760000   -22.0116800   151.7581000   -7.2901050    -82.7328500   
5625000000    -16.6677700   -32.5540700   12.2022400    151.2287000   -21.9910800   150.5341000   -7.3168540    -84.3827700   
5650000000    -16.6896100   -34.1538500   12.1649800    149.7628000   -21.9753400   149.3306000   -7.3443130    -86.0631100   
5675000000    -16.6697800   -36.1441300   12.1072700    148.2246000   -21.9468000   148.2662000   -7.3448670    -87.5104500   
5700000000    -16.6342300   -37.5209700   12.0739200    146.7106000   -21.9109800   147.0447000   -7.3581930    -89.1067200   
5725000000    -16.7121800   -39.5954600   12.0146600    145.2471000   -21.8934200   145.8407000   -7.3916980    -90.7294200   
5750000000    -16.6703200   -41.4893800   11.9703000    143.7205000   -21.8745900   144.6515000   -7.4090770    -92.4612500   
5775000000    -16.6020200   -43.6106900   11.9150900    142.2444000   -21.8507800   143.4126000   -7.4134790    -94.1477900   
5800000000    -16.5583800   -44.6857400   11.8652500    140.8110000   -21.8334000   142.3672000   -7.4380200    -95.5949000   
5825000000    -16.5525100   -46.1679800   11.8200800    139.2754000   -21.7946800   141.1018000   -7.4398030    -97.1421900   
5850000000    -16.6450200   -47.6373900   11.7672300    137.8210000   -21.7735100   139.8752000   -7.4426900    -98.8352200   
5875000000    -16.6173700   -49.5831600   11.7184800    136.3067000   -21.7605400   138.6808000   -7.4597100    -100.3467000  
5900000000    -16.6897600   -51.0989500   11.6714400    134.9739000   -21.7367000   137.6204000   -7.4595780    -101.6056000  
5925000000    -16.7380700   -52.4413600   11.6164300    133.4267000   -21.7257700   136.3460000   -7.4843250    -103.2216000  
5950000000    -16.8317600   -53.4347300   11.5838200    132.0522000   -21.6955500   135.2897000   -7.5254230    -104.6362000  
5975000000    -16.8751400   -55.6814100   11.5358300    130.5256000   -21.6605900   133.9851000   -7.5093550    -106.2905000  
6000000000    -16.9537700   -57.3522300   11.4860200    129.1172000   -21.6602600   132.9800000   -7.5231150    -107.7225000  
6025000000    -16.9390600   -58.9734800   11.4475300    127.6272000   -21.6039100   131.6795000   -7.5090240    -109.1424000  
6050000000    -16.9788800   -61.0178200   11.3932700    125.9746000   -21.5987900   130.6208000   -7.5475690    -110.7706000  
6075000000    -17.0410500   -62.6499800   11.3590100    124.8143000   -21.5650800   129.3485000   -7.5432650    -112.1767000  
6100000000    -17.0001900   -64.8528100   11.3069000    123.1617000   -21.5491800   127.8369000   -7.5451310    -114.1742000  
6125000000    -17.0856800   -66.3729200   11.2624400    121.7773000   -21.5270100   126.9685000   -7.5338700    -115.2520000  
6150000000    -17.1252700   -68.3690600   11.2105800    120.2147000   -21.5036700   125.7308000   -7.5487810    -116.7840000  
6175000000    -17.2522300   -70.3886600   11.1630500    118.7992000   -21.4861900   124.6055000   -7.5741900    -118.3013000  
6200000000    -17.1451200   -72.7174100   11.1263400    117.2451000   -21.4448800   123.3841000   -7.5587670    -119.8792000  
6225000000    -17.1710100   -74.7739800   11.0674800    115.9001000   -21.4398200   122.2137000   -7.5691610    -121.3465000  
6250000000    -17.0831500   -76.2723200   11.0322400    114.3251000   -21.4069800   120.9219000   -7.5816600    -122.8598000  
6275000000    -17.2141500   -77.7424400   10.9817000    112.9174000   -21.3855900   119.8379000   -7.6214420    -124.3753000  
6300000000    -17.1815900   -79.8983800   10.9477200    111.3739000   -21.3534200   118.5075000   -7.6222160    -126.1526000  
6325000000    -17.1719000   -82.5421500   10.8919000    109.8786000   -21.3416000   117.3478000   -7.6180820    -127.7470000  
6350000000    -17.1384000   -84.1740200   10.8470600    108.4387000   -21.3143300   116.1016000   -7.6107850    -129.3346000  
6375000000    -17.0745100   -86.0789100   10.7955400    106.8890000   -21.3013200   114.8897000   -7.6425130    -130.8861000  
6400000000    -17.2370200   -87.9092800   10.7490000    105.5271000   -21.2778700   113.6759000   -7.6421660    -132.5911000  
6425000000    -17.1383000   -90.6191300   10.7023900    103.9124000   -21.2575000   112.4150000   -7.6363330    -134.2603000  
6450000000    -17.0963500   -92.4184400   10.6578100    102.5308000   -21.2435100   111.2614000   -7.6249440    -135.7025000  
6475000000    -17.0662000   -94.0698600   10.6014400    101.0019000   -21.2209000   110.0215000   -7.6450820    -137.2278000  
6500000000    -17.2539500   -95.3474300   10.5613900    99.6927400    -21.2138500   108.9087000   -7.6811960    -138.6767000  
6525000000    -17.2677600   -98.0499700   10.5068900    98.2375700    -21.1773400   107.4338000   -7.6665610    -140.4614000  
6550000000    -17.1764500   -100.5717000  10.4595700    96.5820000    -21.1691600   106.3626000   -7.6661980    -142.2711000  
6575000000    -17.1757900   -102.2939000  10.4171500    95.1993700    -21.1501000   105.2128000   -7.6512070    -143.7378000  
6600000000    -17.1761800   -104.1625000  10.3644500    93.7159000    -21.1366600   103.9918000   -7.6652490    -145.2703000  
6625000000    -17.2564000   -105.9217000  10.3208300    92.2913300    -21.1087600   102.7541000   -7.6551800    -146.9562000  
6650000000    -17.2697900   -108.9569000  10.2672600    90.7865100    -21.1066900   101.5099000   -7.6469690    -148.6410000  
6675000000    -17.2084500   -111.2876000  10.2305700    89.2953600    -21.0842800   100.3525000   -7.6080150    -150.1507000  
6700000000    -17.1549100   -113.5941000  10.1663200    87.8222400    -21.0741300   99.0321000    -7.5912870    -151.8122000  
6725000000    -17.2061600   -115.5618000  10.1244700    86.3954600    -21.0539100   97.9416800    -7.5821120    -153.0978000  
6750000000    -17.1645400   -118.0148000  10.0774400    84.8796200    -21.0348100   96.5696000    -7.5776970    -154.7165000  
6775000000    -17.1364300   -120.8168000  10.0156900    83.4907200    -21.0299200   95.4513200    -7.5798840    -156.3205000  
6800000000    -17.0294600   -122.3114000  9.9839320     81.9757100    -21.0028600   94.1414900    -7.5626730    -157.9713000  
6825000000    -17.1036700   -124.6794000  9.9226880     80.5640100    -20.9990600   92.9629000    -7.5625240    -159.5049000  
6850000000    -17.0809100   -126.9138000  9.8846660     79.0572300    -20.9749100   91.7282600    -7.5494460    -161.1554000  
6875000000    -16.9433500   -129.7445000  9.8317650     77.5274900    -20.9617200   90.5303600    -7.5325190    -162.7050000  
6900000000    -16.8338000   -132.0109000  9.7819780     76.1090500    -20.9432100   89.3176000    -7.4884750    -164.3374000  
6925000000    -16.7134500   -133.8279000  9.7281910     74.8768700    -20.9383200   87.9601200    -7.4812650    -165.8311000  
6950000000    -16.7923900   -136.0965000  9.6755620     73.2167300    -20.9240500   86.8112000    -7.4502310    -167.5794000  
6975000000    -16.6700100   -138.2406000  9.6327720     71.7047700    -20.9235000   85.8467900    -7.4279440    -168.8080000  
7000000000    -16.5597900   -140.8131000  9.5756930     70.3178100    -20.8998200   84.3859400    -7.3910910    -170.5652000  
7025000000    -16.4007600   -142.2555000  9.5281990     68.8585200    -20.8974600   83.2165500    -7.3762160    -172.0195000  
7050000000    -16.3950900   -143.8686000  9.4744940     67.4467000    -20.8773400   82.1023700    -7.3619240    -173.2720000  
7075000000    -16.4147300   -146.0407000  9.4245280     65.9567600    -20.8569000   80.7551700    -7.3487870    -174.7895000  
7100000000    -16.3540100   -148.8673000  9.3659140     64.5738400    -20.8656300   79.6568500    -7.3659600    -176.2670000  
7125000000    -16.2807700   -150.2839000  9.3376640     63.1514400    -20.8465300   78.4151300    -7.3333860    -177.8136000  
7150000000    -16.1517300   -152.3877000  9.2682270     61.6533400    -20.8422800   77.2437800    -7.3151620    -179.2311000  
7175000000    -16.1775100   -153.6528000  9.2329100     60.2626800    -20.8181900   76.0812900    -7.3108270    179.3807000   
7200000000    -16.1199200   -156.3625000  9.1744800     58.8275000    -20.8148900   74.8259700    -7.3229140    177.7588000   
7225000000    -15.9942100   -158.4003000  9.1315030     57.3257400    -20.7955800   73.6140100    -7.2772980    176.1482000   
7250000000    -15.9030500   -160.2750000  9.0730310     55.9012200    -20.7966500   72.3207400    -7.2293680    174.5368000   
7275000000    -15.9140100   -162.2453000  9.0245170     54.5250500    -20.7872900   71.2426300    -7.2041440    173.3774000   
7300000000    -15.8720200   -164.4324000  8.9727700     53.0259400    -20.7727200   69.9137600    -7.2070690    172.0261000   
7325000000    -15.8339500   -166.9282000  8.9160740     51.6983300    -20.7681400   68.8148700    -7.2030760    170.5621000   
7350000000    -15.6986700   -168.7128000  8.8785230     50.1773600    -20.7562100   67.4925300    -7.1543470    168.9138000   
7375000000    -15.6511100   -171.1515000  8.8075900     48.7996600    -20.7579800   66.3214700    -7.1154110    167.6899000   
7400000000    -15.6373200   -173.2625000  8.7606920     47.3762800    -20.7345900   65.1176400    -7.0948880    166.5119000   
7425000000    -15.5419100   -175.5429000  8.7178340     45.9330100    -20.7391300   63.9559200    -7.1293760    165.1377000   
7450000000    -15.4038300   -177.6706000  8.6646270     44.4974300    -20.7142800   62.7122000    -7.0973770    163.4329000   
7475000000    -15.2896900   -179.2737000  8.6156080     42.9762500    -20.7264300   61.6263500    -7.0538720    161.9080000   
7500000000    -15.3221700   178.8178000   8.5671820     41.7808900    -20.7060600   60.2031900    -7.0073990    160.6397000   
7525000000    -15.2092000   176.6063000   8.5165950     40.2803900    -20.6950600   59.0897200    -6.9986440    159.5157000   
7550000000    -15.0963400   174.2879000   8.4662880     38.9382000    -20.6803800   57.8638700    -6.9876030    157.9987000   
7575000000    -14.8986400   172.4394000   8.4005120     37.4210700    -20.6788200   56.5288300    -6.9391700    156.2289000   
7600000000    -14.8575200   170.8608000   8.3525760     36.0468700    -20.6863600   55.5294300    -6.8866380    155.0929000   
7625000000    -14.8213400   168.9448000   8.3101030     34.5799100    -20.6710800   54.4024600    -6.8549770    154.0287000   
7650000000    -14.7076300   166.5755000   8.2514380     33.1385000    -20.6654800   53.3020100    -6.8608980    152.9241000   
7675000000    -14.5610900   164.6645000   8.2095160     31.7335000    -20.6517000   51.9745400    -6.8267840    151.3718000   
7700000000    -14.4216600   162.8463000   8.1374650     30.3621200    -20.6697300   50.8065600    -6.8000930    149.9861000   
7725000000    -14.4320200   161.6781000   8.1058580     29.0355700    -20.6451800   49.6175300    -6.7723370    148.9098000   
7750000000    -14.3580300   159.4422000   8.0514890     27.5767100    -20.6482400   48.4092300    -6.7869590    147.7365000   
7775000000    -14.2691000   157.3233000   8.0014690     26.1979200    -20.6297700   47.2862100    -6.7721970    146.3340000   
7800000000    -14.1003600   155.6099000   7.9449240     24.7618700    -20.6284800   45.9986900    -6.7458520    144.7667000   
7825000000    -14.0107600   153.8884000   7.8967720     23.4308600    -20.6203000   44.8329800    -6.7072940    143.6443000   
7850000000    -13.9422300   152.3085000   7.8463530     21.9722900    -20.6140800   43.5739600    -6.7099470    142.3664000   
7875000000    -13.8614500   150.0096000   7.7893600     20.6662000    -20.6174100   42.5273500    -6.7191200    141.0582000   
7900000000    -13.7204000   148.6478000   7.7530520     19.2091000    -20.6019800   41.2444400    -6.6742160    139.4976000   
7925000000    -13.5650300   146.9856000   7.6852970     17.8088500    -20.6078100   40.0986400    -6.6262040    138.3060000   
7950000000    -13.5027900   145.3185000   7.6350680     16.4309500    -20.5924900   38.8760900    -6.6022810    137.1663000   
7975000000    -13.3909800   143.3110000   7.5824680     15.0736100    -20.6005400   37.7083700    -6.6330200    136.0069000   
8000000000    -13.2485600   141.4712000   7.5333840     13.6811800    -20.5860000   36.5515000    -6.6070270    134.5760000   
8025000000    -13.0994500   140.0301000   7.4728580     12.3102800    -20.5952000   35.3705700    -6.5758970    133.1564000   
8050000000    -13.0523600   138.7742000   7.4356750     10.9936600    -20.5692800   34.1838600    -6.5442860    132.0867000   
8075000000    -12.9818400   137.0857000   7.3793790     9.4794530     -20.5784600   32.9441300    -6.5633860    130.8120000   
8100000000    -12.8981200   135.1227000   7.3311300     8.1560270     -20.5673700   31.9888900    -6.5532100    129.3924000   
8125000000    -12.6987400   133.8027000   7.2809450     6.7448570     -20.5706900   30.7537800    -6.5258930    127.9530000   
8150000000    -12.6074100   132.5875000   7.2235100     5.4306000     -20.5640900   29.7358600    -6.4774300    126.8965000   
8175000000    -12.5628700   131.2798000   7.1731790     3.9973960     -20.5528500   28.2517000    -6.4536690    125.4417000   
8200000000    -12.4737100   129.3364000   7.1087960     2.6551190     -20.5550100   27.1648500    -6.4673610    124.2847000   
8225000000    -12.3990800   127.7684000   7.0831690     1.3112570     -20.5419800   25.8936000    -6.4147930    122.8571000   
8250000000    -12.1982800   126.1647000   7.0037220     -0.0823967    -20.5603300   24.7453000    -6.3743700    121.6959000   
8275000000    -12.1674900   125.0152000   6.9691500     -1.3749320    -20.5478200   23.6672000    -6.3513220    120.8292000   
8300000000    -12.1083300   123.5573000   6.9072730     -2.7247800    -20.5535900   22.5210600    -6.3719930    119.7692000   
8325000000    -12.0457900   121.9835000   6.8729380     -4.0276250    -20.5336200   21.4145900    -6.3590780    118.4779000   
8350000000    -11.8815700   120.4006000   6.8143990     -5.4436820    -20.5389100   20.1096900    -6.3354770    117.1110000   
8375000000    -11.7638700   119.0654000   6.7597760     -6.7078790    -20.5214200   19.0138500    -6.2953210    116.1190000   
8400000000    -11.6982100   118.1442000   6.7208310     -8.1330900    -20.5281200   17.7849800    -6.3192610    114.9160000   
8425000000    -11.6624600   116.5134000   6.6732420     -9.3798920    -20.5169600   16.6745400    -6.3273160    113.6667000   
8450000000    -11.5525600   115.3122000   6.6268800     -10.9199700   -20.5144700   15.3737400    -6.2909330    112.0804000   
8475000000    -11.4333900   113.4799000   6.5479430     -12.1228100   -20.5189500   14.3308800    -6.2547260    110.9571000   
8500000000    -11.3305700   112.4582000   6.5249060     -13.5599400   -20.4984200   13.0732700    -6.2206160    109.8888000   
8525000000    -11.2594500   111.0906000   6.4571340     -14.9087200   -20.5179900   11.8956500    -6.2421330    108.7332000   
8550000000    -11.1767800   109.7930000   6.4147230     -16.2413500   -20.5084400   10.7386100    -6.2357910    107.3965000   
8575000000    -11.0750400   108.3940000   6.3448580     -17.6032300   -20.5260400   9.5480910     -6.2303430    106.1287000   
8600000000    -11.0377600   107.1155000   6.3051690     -18.8649500   -20.4999200   8.5375150     -6.1892310    105.1664000   
8625000000    -10.9504100   105.8745000   6.2552710     -20.3095000   -20.5134800   7.2523990     -6.2122620    103.9680000   
8650000000    -10.8552900   104.5234000   6.2176550     -21.5569400   -20.5035800   6.2861910     -6.2238970    102.8402000   
8675000000    -10.7157100   103.5101000   6.1557310     -23.0366800   -20.5085700   4.9926410     -6.2250440    101.2974000   
8700000000    -10.6532700   102.4385000   6.1010980     -24.2756800   -20.5129500   4.0899500     -6.2146340    100.1400000   
8725000000    -10.5747300   101.1566000   6.0592060     -25.3999800   -20.4861500   2.6552680     -6.1912440    98.8726400    
8750000000    -10.4807300   99.7423100    5.9989990     -26.9254200   -20.5050700   1.5318780     -6.1937120    97.4043600    
8775000000    -10.3762300   98.6003600    5.9667680     -28.2878000   -20.4890500   0.4343667     -6.1544480    96.1322500    
8800000000    -10.2403800   97.5466600    5.8975270     -29.6411200   -20.5062300   -0.7403877    -6.1513900    94.7860500    
8825000000    -10.1532400   96.6713900    5.8537930     -30.9607500   -20.4875400   -1.8816450    -6.1262860    93.5576000    
8850000000    -10.0819100   95.6981400    5.7900430     -32.3214300   -20.5147000   -3.0068540    -6.1233360    92.2920700    
8875000000    -10.0072900   94.5650700    5.7483830     -33.5287600   -20.4962700   -4.0890760    -6.0723490    91.1371200    
8900000000    -9.9193110    93.6316500    5.6893790     -34.8576500   -20.5030300   -5.2814840    -6.0659720    90.0157100    
8925000000    -9.8609850    92.6578100    5.6380240     -36.0636100   -20.4968600   -6.2894830    -6.0551600    89.1445200    
8950000000    -9.8061190    91.8865500    5.5903310     -37.4701300   -20.5022000   -7.5128710    -6.0679570    87.8382700    
8975000000    -9.7382730    90.8565300    5.5310440     -38.6304700   -20.5035500   -8.5026870    -6.0659940    86.6855400    
9000000000    -9.6948250    90.2493800    5.5017680     -39.9183400   -20.4888200   -9.7489280    -6.0314470    85.4219100    
9025000000    -9.6517720    89.3593000    5.4436520     -41.2248800   -20.4971700   -10.7411200   -6.0324760    84.4926000    
9050000000    -9.6187570    88.3831500    5.4121790     -42.5193000   -20.4726900   -11.8981900   -6.0344630    83.4231100    
9075000000    -9.5535650    87.3525200    5.3452130     -43.8666600   -20.4926900   -13.0469000   -6.0593170    82.1683300    
9100000000    -9.5202350    86.3860500    5.3037070     -45.0534300   -20.4743600   -14.1603700   -6.0243900    80.8995700    
9125000000    -9.4931180    85.7116500    5.2585610     -46.3494500   -20.4803200   -15.4063700   -6.0073880    79.7503000    
9150000000    -9.4950490    84.7646000    5.2209890     -47.5948200   -20.4553200   -16.4664700   -5.9780720    78.8778600    
9175000000    -9.4753720    83.6303100    5.1718550     -49.0390700   -20.4781100   -17.7042100   -6.0164800    77.7757300    
9200000000    -9.4446830    82.4217400    5.1316490     -50.2617300   -20.4677100   -18.6068500   -6.0190790    76.8448400    
9225000000    -9.3941010    81.6189300    5.0867490     -51.7284700   -20.4677400   -19.8344700   -6.0137710    75.5259700    
9250000000    -9.3963130    80.6023300    5.0216970     -52.8789000   -20.4646800   -20.7822600   -6.0026950    74.5780300    
9275000000    -9.4341870    79.6825300    5.0058920     -54.1801200   -20.4419100   -22.0055700   -5.9906930    73.5411100    
9300000000    -9.4238930    78.3568400    4.9420200     -55.5568400   -20.4565700   -23.0454700   -6.0116110    72.6516300    
9325000000    -9.4201970    77.2222500    4.9129210     -56.7630900   -20.4265800   -24.2459000   -6.0112080    71.4896500    
9350000000    -9.3814740    76.2722000    4.8302720     -58.0332900   -20.4535600   -25.3192700   -6.0519080    70.3824100    
9375000000    -9.3995460    75.3073900    4.8142600     -59.1761400   -20.4199400   -26.3766800   -6.0275420    69.3493500    
9400000000    -9.3912920    74.1147800    4.7619090     -60.5097700   -20.4265000   -27.5427300   -6.0262080    68.1836900    
9425000000    -9.3720930    72.7374100    4.7424750     -61.7071900   -20.3940400   -28.6761900   -6.0218020    67.2198500    
9450000000    -9.3111740    71.7733600    4.6890150     -63.0358800   -20.4131300   -29.8838600   -6.0661500    66.0657300    
9475000000    -9.2905740    70.5361700    4.6571570     -64.1545900   -20.3924000   -30.8179600   -6.0829860    65.0807600    
9500000000    -9.2681960    69.5294400    4.6249410     -65.5532800   -20.3948600   -32.0656800   -6.0733440    63.7306500    
9525000000    -9.2326020    68.1404600    4.5721360     -66.7507000   -20.3856900   -32.9795200   -6.0601070    62.8160000    
9550000000    -9.1887730    67.2833900    4.5431160     -68.1214400   -20.3662600   -34.1637000   -6.0528390    61.8382500    
9575000000    -9.1530420    66.3456900    4.4900150     -69.3560300   -20.3728500   -35.1817200   -6.1158730    60.8765300    
9600000000    -9.1320200    65.3629000    4.4674380     -70.6117600   -20.3409200   -36.2933000   -6.1447840    59.6284700    
9625000000    -9.0927640    64.1095900    4.4078820     -71.8567500   -20.3410100   -37.4075700   -6.1549970    58.2727100    
9650000000    -9.0602760    63.3483500    4.3922940     -73.1241500   -20.3201800   -38.5841800   -6.1243190    57.0591300    
9675000000    -9.0021260    62.6175300    4.3306380     -74.4917900   -20.3216600   -39.8079700   -6.1605880    55.8722500    
9700000000    -9.0148040    62.0659100    4.3133750     -75.9803200   -20.2900800   -40.3802300   -6.1734160    54.9052800    
9725000000    -8.9885800    60.9497700    4.2744750     -76.8708000   -20.2861300   -41.8077800   -6.2140050    53.8910100    
9750000000    -8.9931170    59.7644200    4.2318940     -78.1351700   -20.2764200   -42.7606700   -6.1992910    52.7113200    
9775000000    -8.9430800    59.1145000    4.2041600     -79.5894400   -20.2687100   -44.8841600   -6.1888340    50.4946600    
9800000000    -8.9260520    58.4007700    4.1422920     -80.7238600   -20.2897100   -45.3659400   -6.2187310    50.0753900    
9825000000    -8.9712980    57.7405500    4.1491760     -82.0754700   -20.2441300   -46.4082500   -6.2099350    49.1798000    
9850000000    -8.9791560    56.4579900    4.0832370     -83.4378400   -20.2703700   -47.5509400   -6.2372130    48.1689100    
9875000000    -8.9741690    55.4829400    4.0709610     -84.6629900   -20.2291500   -48.5903400   -6.2084710    47.0797500    
9900000000    -8.9383970    54.5978900    4.0206310     -86.0199100   -20.2278200   -49.8308800   -6.2267040    45.9561900    
9925000000    -8.9790560    53.9435300    3.9965220     -87.2403000   -20.2186600   -50.8770400   -6.2117530    44.9319300    
9950000000    -9.0233940    52.8970600    3.9552670     -88.6350400   -20.2105600   -52.0884600   -6.2548300    43.7969700    
9975000000    -9.0659970    51.5243800    3.9255310     -89.8833800   -20.1789600   -53.1196300   -6.2559600    42.9441900    
10000000000   -9.0777610    50.5498000    3.8771110     -91.3692800   -20.1834100   -54.4175600   -6.2671530    41.5767500    
10025000000   -9.1090500    49.4793500    3.8243790     -92.4014000   -20.1708900   -55.3466600   -6.2754750    40.4564600    
10050000000   -9.1643500    48.5544200    3.8023730     -93.8195900   -20.1584900   -56.8127700   -6.2794760    39.0641300    
10075000000   -9.2036390    47.2829200    3.7465930     -95.0478200   -20.1715000   -57.7836400   -6.2999120    38.0459900    
10100000000   -9.2165580    45.9403300    3.7283580     -96.3795800   -20.1428200   -58.9758800   -6.2945940    36.8188100    
10125000000   -9.2105170    44.5743700    3.6701090     -97.6268000   -20.1620800   -60.0802100   -6.3194830    35.8213300    
10150000000   -9.2335180    43.5335800    3.6552280     -98.8151900   -20.1288500   -61.1555600   -6.2877310    34.7199200    
10175000000   -9.2403440    42.2842400    3.6042860     -100.1102000  -20.1153900   -62.3332400   -6.3324850    33.4124700    
10200000000   -9.2611470    41.1003700    3.6046650     -101.3870000  -20.1007500   -63.5341300   -6.3441910    32.2068400    
10225000000   -9.2135270    39.8025600    3.5549400     -102.8303000  -20.1165400   -64.6812000   -6.3745410    30.8497000    
10250000000   -9.2269930    38.5723900    3.5268250     -104.0741000  -20.0908600   -65.6314200   -6.3567650    29.8386900    
10275000000   -9.2272830    37.3531200    3.4916860     -105.4566000  -20.0732100   -66.9280500   -6.3838670    28.4886800    
10300000000   -9.2282880    35.9608100    3.4481520     -106.6966000  -20.0545200   -67.9720800   -6.4234720    27.2619700    
10325000000   -9.1767120    34.8863000    3.4398910     -108.2037000  -20.0483400   -69.4228500   -6.4304150    25.4668900    
10350000000   -9.1317710    33.7917800    3.3694820     -109.4879000  -20.0724700   -70.3245900   -6.4308600    24.1192400    
10375000000   -9.1442640    32.7980800    3.3551390     -110.7423000  -20.0369300   -71.3836400   -6.3885980    22.9837200    
10400000000   -9.1771830    31.3313900    3.3021360     -112.1002000  -20.0327000   -72.3940600   -6.4004860    22.0087200    
10425000000   -9.1809360    29.8552200    3.2917470     -113.5235000  -19.9968500   -73.6952400   -6.3864600    20.6964600    
10450000000   -9.1151220    28.7427500    3.2415020     -114.9515000  -20.0106800   -74.6051600   -6.3956780    19.2150100    
10475000000   -9.1103590    27.6031200    3.1898090     -115.3377000  -19.9726400   -76.4803600   -6.3345610    18.1850300    
10500000000   -9.1075330    26.6604800    3.1573270     -117.3039000  -20.0006100   -77.7307600   -6.3309300    16.6595300    
10525000000   -9.1341910    25.1970700    3.1501880     -118.5161000  -19.9621900   -78.1392800   -6.3059110    16.3972900    
10550000000   -9.1150510    23.7498100    3.1066460     -120.0638000  -19.9579800   -79.6837900   -6.3131260    14.7649700    
10575000000   -9.0994220    22.4507700    3.0647090     -121.1785000  -19.9566100   -80.6283100   -6.2993760    13.6472700    
10600000000   -9.0790710    21.4493900    3.0309180     -122.5847000  -19.9355100   -81.9838600   -6.2687130    12.5669400    
10625000000   -9.0932720    20.2238600    2.9883590     -123.8114000  -19.9409100   -82.9993600   -6.2808380    11.7734100    
10650000000   -9.1334020    18.8617600    2.9760830     -125.1479000  -19.9131600   -84.3087300   -6.2528900    10.4832200    
10675000000   -9.1191400    17.2301400    2.9213130     -126.5826000  -19.9178200   -85.4963400   -6.2372930    9.2367870     
10700000000   -9.1296620    15.9034500    2.8996090     -127.8352000  -19.9127800   -86.6178100   -6.1919070    8.2547490     
10725000000   -9.1152440    14.6303400    2.8380150     -129.1196000  -19.9250700   -87.7410800   -6.2242800    7.4427580     
10750000000   -9.1262330    13.1593700    2.8190050     -130.3982000  -19.8894400   -88.8105200   -6.2105890    6.5454000     
10775000000   -9.1362790    11.8123600    2.7609890     -131.8118000  -19.9000800   -90.0508300   -6.1887810    5.0978590     
10800000000   -9.1486040    10.6369600    2.7299170     -132.9668000  -19.8697600   -91.1634100   -6.1355380    4.1698740     
10825000000   -9.1535370    9.4138130     2.6897030     -134.3784000  -19.8843400   -92.5406400   -6.1596600    3.2646100     
10850000000   -9.1593090    8.1366580     2.6555340     -135.5032000  -19.8775300   -93.4457000   -6.2212230    2.5199250     
10875000000   -9.1748800    6.9568540     2.6410480     -136.9265000  -19.8588100   -94.6266600   -6.2441060    0.9334885     
10900000000   -9.1768460    5.5079460     2.5802940     -138.1647000  -19.8530300   -95.6908700   -6.2133660    -0.2599098    
10925000000   -9.1908920    4.3141110     2.5747790     -139.5527000  -19.8292300   -97.0663100   -6.1554370    -1.3184600    
10950000000   -9.2007420    2.6624110     2.5135180     -140.8439000  -19.8464300   -98.2040400   -6.2222290    -2.2288960    
10975000000   -9.1703420    1.3714210     2.4944570     -142.1705000  -19.8287500   -99.3794800   -6.2651390    -3.6095750    
11000000000   -9.1409420    0.0864971     2.4474220     -143.5322000  -19.8478500   -100.4555000  -6.2660260    -5.1996110    
11025000000   -9.1587520    -0.9886386    2.4156960     -144.7538000  -19.7952900   -101.5687000  -6.1790260    -6.2397110    
11050000000   -9.1629340    -2.2493400    2.3720680     -146.1634000  -19.7918100   -102.9039000  -6.1872430    -7.1160860    
11075000000   -9.1745410    -3.6360430    2.3513820     -147.2340000  -19.7825300   -103.9130000  -6.2092210    -8.1016400    
11100000000   -9.1696020    -5.0255930    2.3102060     -148.8231000  -19.7916500   -105.3773000  -6.2295060    -9.9227670    
11125000000   -9.1967050    -6.2683810    2.2587860     -149.8965000  -19.7932000   -106.3313000  -6.1740270    -10.8650600   
11150000000   -9.2084470    -7.4799900    2.2359250     -151.2910000  -19.7625500   -107.4464000  -6.1206580    -11.5202500   
11175000000   -9.2522220    -9.0024280    2.2027510     -152.4516000  -19.7417600   -108.5548000  -6.1814950    -11.9939700   
11200000000   -9.2652590    -10.3244100   2.1937630     -153.8300000  -19.7363700   -109.8363000  -6.2175760    -13.6045200   
11225000000   -9.2742950    -11.9464600   2.1318740     -155.2595000  -19.7607000   -111.0082000  -6.2251640    -15.2961100   
11250000000   -9.3102590    -13.4894900   2.1081140     -156.5438000  -19.7526900   -112.0004000  -6.1216180    -16.3144500   
11275000000   -9.3241880    -15.2077100   2.0444680     -157.7436000  -19.7419200   -113.1815000  -6.1266560    -16.7876200   
11300000000   -9.3361540    -16.9525300   2.0386520     -158.9517000  -19.6560300   -114.1929000  -6.1364540    -17.6305500   
11325000000   -9.2979340    -18.4779900   2.0010290     -160.3175000  -19.6957300   -115.8290000  -6.1439330    -19.3041800   
11350000000   -9.3144120    -20.0701100   1.9654140     -161.5695000  -19.6912100   -116.9851000  -6.0718450    -20.5735800   
11375000000   -9.3285210    -21.8492900   1.9325340     -163.0280000  -19.7116800   -118.2557000  -6.0331270    -21.2776900   
11400000000   -9.3280900    -23.8716000   1.8773260     -164.1421000  -19.7158100   -119.1956000  -6.0461910    -21.5033500   
11425000000   -9.2697880    -25.5567500   1.8998790     -165.7216000  -19.6612500   -120.2938000  -6.0560010    -22.7383000   
11450000000   -9.2185170    -27.1490000   1.8340390     -167.0296000  -19.6841000   -121.5997000  -6.0484340    -23.9540100   
11475000000   -9.2078660    -28.3945200   1.8256870     -168.4361000  -19.6744100   -122.6212000  -6.0009140    -25.1744700   
11500000000   -9.2398920    -30.4475300   1.7817120     -169.7938000  -19.6370200   -123.7413000  -6.0683780    -25.7499800   
11525000000   -9.2139740    -32.2749400   1.7479260     -171.2326000  -19.6191900   -125.1480000  -6.0953650    -26.8558400   
11550000000   -9.1206430    -33.7860300   1.6941500     -172.5598000  -19.6500800   -126.4164000  -6.1172290    -28.4023900   
11575000000   -9.0648830    -34.9551600   1.6691720     -173.8883000  -19.5901200   -127.5054000  -6.0623020    -29.8072800   
11600000000   -9.0391280    -36.3331500   1.6225090     -175.4335000  -19.6005600   -129.0453000  -6.0771010    -31.1147800   
11625000000   -9.0476260    -38.1301500   1.5834120     -176.5128000  -19.6265300   -130.2687000  -6.1010060    -32.3545300   
11650000000   -8.9504150    -39.7652500   1.5351420     -178.1063000  -19.6693600   -131.5845000  -6.0892060    -34.1731800   
11675000000   -8.9098480    -41.4729800   1.4816720     -179.3255000  -19.6650000   -132.4019000  -6.0085800    -35.1868900   
11700000000   -8.8539450    -42.5111600   1.4406640     179.2862000   -19.6163900   -133.8543000  -5.9415340    -36.0419900   
11725000000   -8.8067530    -43.9014600   1.4026120     178.1067000   -19.6636100   -135.0353000  -5.9842140    -36.6450100   
11750000000   -8.8045680    -45.3423400   1.3779460     176.7067000   -19.6372300   -136.3081000  -6.0210900    -38.2908900   
11775000000   -8.7156250    -46.9140100   1.3201030     175.3038000   -19.6854100   -137.4149000  -6.0429970    -39.9223400   
11800000000   -8.6927910    -48.1473300   1.2964660     174.0792000   -19.6298400   -138.5088000  -5.9562890    -40.9345500   
11825000000   -8.6393950    -49.6624600   1.2424160     172.6480000   -19.6653300   -139.8103000  -5.9453430    -41.7063300   
11850000000   -8.6033050    -51.1017900   1.2159200     171.3733000   -19.6374600   -140.9579000  -5.9806640    -42.8674500   
11875000000   -8.5467110    -52.6200500   1.1693520     169.8600000   -19.6338700   -142.3483000  -6.0360080    -44.8932500   
11900000000   -8.5231030    -54.0068900   1.1157580     168.5055000   -19.6511600   -143.4248000  -5.9751290    -46.5513300   
11925000000   -8.4824460    -55.4878800   1.0547430     167.0274000   -19.6501100   -144.8214000  -5.9121040    -47.7848700   
11950000000   -8.4565880    -57.3322900   0.9868740     165.9401000   -19.6741600   -145.8765000  -5.8805270    -48.5119200   
11975000000   -8.3633130    -58.7693000   0.9511096     164.5480000   -19.6986200   -147.1941000  -5.8461840    -49.9978800   
12000000000   -8.2743080    -60.2000000   0.8780840     163.4082000   -19.6925200   -148.3085000  -5.8231290    -51.3629800   
12025000000   -8.2145580    -61.2451800   0.8512581     161.9979000   -19.7037500   -149.6880000  -5.7397000    -52.6642600   
12050000000   -8.1770590    -62.8357200   0.7820186     160.8105000   -19.7576800   -150.6727000  -5.7163340    -53.3846700   
12075000000   -8.1411450    -64.4680300   0.7442964     159.5397000   -19.7305000   -151.8005000  -5.6770180    -54.2934800   
12100000000   -8.0319710    -65.8997700   0.6789932     158.2630000   -19.7911600   -153.0540000  -5.6709670    -55.4113200   
12125000000   -7.9787060    -66.8980300   0.6785872     156.9079000   -19.7640400   -153.9199000  -5.6228990    -56.4267900   
12150000000   -7.9106350    -68.1138800   0.5886140     155.3503000   -19.8205500   -155.1458000  -5.6467030    -57.3682500   
12175000000   -7.9052160    -69.7184000   0.5451241     154.5374000   -19.7910500   -155.9835000  -5.6407010    -57.7668200   
12200000000   -7.8064870    -71.0261900   0.4945148     153.0704000   -19.8030400   -157.2657000  -5.6253730    -58.8303300   
12225000000   -7.7355600    -72.3567300   0.4354030     151.9593000   -19.7552800   -158.3392000  -5.5500970    -59.9078200   
12250000000   -7.6558920    -73.2637500   0.4070451     150.7182000   -19.7718500   -160.0515000  -5.5255130    -61.1431300   
12275000000   -7.6130390    -74.3428600   0.3722905     149.4026000   -19.8238300   -160.8969000  -5.5588260    -62.0005600   
12300000000   -7.5696730    -75.5259000   0.3473594     148.0639000   -19.7888400   -162.0601000  -5.5638020    -63.2669600   
12325000000   -7.4709940    -76.6829000   0.2618030     146.7148000   -19.8347000   -163.2621000  -5.5595370    -64.4663500   
12350000000   -7.4205950    -77.5781300   0.2307344     145.4531000   -19.7845600   -164.1468000  -5.4802730    -65.6373100   
12375000000   -7.3427820    -78.4910400   0.1479847     144.2251000   -19.8457500   -165.5734000  -5.4438770    -66.5678300   
12400000000   -7.3254970    -79.3836600   0.1287814     143.0976000   -19.8313600   -166.6603000  -5.4159200    -67.4134000   
12425000000   -7.2714320    -80.4020200   0.0815390     141.7652000   -19.8741700   -167.8770000  -5.4516770    -68.4437300   
12450000000   -7.2344730    -81.3533100   0.0387171     140.4945000   -19.8765400   -168.8137000  -5.4278640    -69.3509800   
12475000000   -7.2054090    -82.1780500   -0.0111727    139.1917000   -19.8812100   -170.0440000  -5.4234790    -70.5302400   
12500000000   -7.1852910    -83.4625900   -0.0721418    138.1725000   -19.9075200   -170.8523000  -5.4115380    -71.1618700   
12525000000   -7.1404020    -84.3467100   -0.0764930    136.8127000   -19.8902000   -172.1082000  -5.4019050    -72.1864500   
12550000000   -7.0882790    -85.4095400   -0.1484202    135.6463000   -19.9323700   -172.9562000  -5.4528620    -73.0576300   
12575000000   -7.0660400    -85.9964100   -0.1593889    134.3499000   -19.8809600   -174.1080000  -5.4457730    -74.1876100   
12600000000   -7.0652960    -86.9992400   -0.2239434    133.0115000   -19.8934500   -175.4245000  -5.4575100    -75.3349000   
12625000000   -7.0750000    -88.2609300   -0.2784313    131.9107000   -19.9141500   -176.4475000  -5.4270600    -76.4242100   
12650000000   -7.0018490    -89.3570400   -0.3287139    130.6717000   -19.9327800   -177.3315000  -5.4660010    -77.4659600   
12675000000   -6.9698940    -90.0803600   -0.3399020    129.6971000   -19.8806800   -178.6107000  -5.4373060    -78.4046000   
12700000000   -6.9527180    -90.7221800   -0.3853667    128.1819000   -19.9253100   -179.8925000  -5.4347910    -79.6133000   
12725000000   -6.9830080    -91.9149000   -0.4279011    127.1620000   -19.9372100   179.3242000   -5.4042720    -80.3593400   
12750000000   -6.9769610    -93.3129800   -0.4824858    125.7429000   -19.9275000   178.2804000   -5.4098900    -81.3611100   
12775000000   -6.9391730    -94.5218900   -0.5185326    124.7936000   -19.9206100   177.1983000   -5.4195320    -82.2450800   
12800000000   -6.8847660    -95.5099300   -0.5337588    123.5195000   -19.9129300   176.0860000   -5.3983580    -83.7524200   
12825000000   -6.8662910    -96.3769700   -0.5882990    122.2551000   -19.9231500   174.7451000   -5.3717060    -84.5794600   
12850000000   -6.8798680    -97.6438800   -0.6159879    120.9211000   -19.9470000   173.8348000   -5.3264820    -85.3323200   
12875000000   -6.8385390    -98.9541100   -0.7121092    119.8221000   -19.9557500   172.8360000   -5.3739110    -85.8730500   
12900000000   -6.7765970    -100.0345000  -0.7027774    118.7557000   -19.9197300   171.9366000   -5.3620790    -87.0045400   
12925000000   -6.7196010    -101.0327000  -0.7830358    117.5031000   -19.9493300   170.7305000   -5.3327190    -88.3104400   
12950000000   -6.7040030    -101.8852000  -0.8059562    116.4370000   -19.9402500   169.8675000   -5.2377490    -88.7978000   
12975000000   -6.6630700    -102.8126000  -0.8326076    115.1546000   -19.9456700   168.5156000   -5.2389670    -89.0165700   
13000000000   -6.6269250    -103.8475000  -0.8792514    114.0288000   -19.9353000   167.9270000   -5.3137250    -89.5141100   
13025000000   -6.5768340    -104.3960000  -0.8891745    112.7892000   -19.9084000   166.5574000   -5.3718600    -91.0768100   
13050000000   -6.5531620    -105.2508000  -0.9525316    111.6304000   -19.9193500   165.7807000   -5.3365450    -92.3353600   
13075000000   -6.5637560    -105.8922000  -0.9501377    110.3801000   -19.9106400   164.6585000   -5.2582160    -93.0801500   
13100000000   -6.5123760    -106.9739000  -1.0164510    109.6602000   -19.9499300   163.4481000   -5.2982810    -93.0181600   
13125000000   -6.4875870    -107.5485000  -1.0113910    108.0247000   -19.8503300   162.4330000   -5.3688770    -94.2979600   
13150000000   -6.4686020    -108.1051000  -1.0519400    106.8173000   -19.8485900   161.2190000   -5.4686920    -95.6359600   
13175000000   -6.4843750    -108.8355000  -1.0768990    105.6790000   -19.8233200   160.1269000   -5.4399500    -97.1177100   
13200000000   -6.4695600    -110.0008000  -1.1063770    104.2828000   -19.8903500   159.0812000   -5.4414880    -98.1101400   
13225000000   -6.4386580    -110.8454000  -1.1123080    103.3375000   -19.8568400   157.9971000   -5.4316410    -98.8076400   
13250000000   -6.3883340    -111.4083000  -1.1551670    101.7506000   -19.8303100   156.8170000   -5.4938260    -100.1365000  
13275000000   -6.4032390    -112.1125000  -1.1975430    100.7216000   -19.8290300   155.8071000   -5.5016620    -101.3354000  
13300000000   -6.4339880    -113.0938000  -1.2409740    99.2625700    -19.8307400   154.4982000   -5.5106580    -102.7511000  
13325000000   -6.4192070    -114.2528000  -1.2788270    98.2850900    -19.8064300   153.5201000   -5.5499390    -103.6304000  
13350000000   -6.3648210    -115.0866000  -1.3039100    97.1334200    -19.8063000   152.4051000   -5.5242470    -104.9572000  
13375000000   -6.3468950    -115.7394000  -1.3556990    95.8699000    -19.8170400   151.6928000   -5.5037670    -105.8334000  
13400000000   -6.3635790    -116.3269000  -1.3615480    94.7594400    -19.7514000   150.3146000   -5.4768760    -106.3913000  
13425000000   -6.3830770    -117.5967000  -1.4311860    93.4744300    -19.8125100   149.0155000   -5.5722270    -107.1273000  
13450000000   -6.3610920    -118.7197000  -1.4205370    92.4021800    -19.8010200   148.0743000   -5.6230170    -108.5949000  
13475000000   -6.2985350    -119.6434000  -1.4907890    91.0586900    -19.8294800   147.4687000   -5.6406600    -110.3056000  
13500000000   -6.2755510    -120.1017000  -1.5070430    90.1056200    -19.7417700   146.4944000   -5.5309140    -110.9181000  
13525000000   -6.2934640    -120.8142000  -1.5293460    88.8119400    -19.7320900   145.1603000   -5.5241570    -111.5044000  
13550000000   -6.3223050    -121.7160000  -1.5723790    87.6939400    -19.6933200   144.0066000   -5.6127820    -112.3268000  
13575000000   -6.2660560    -122.6615000  -1.5906330    86.3590900    -19.7164900   142.9485000   -5.6936460    -114.3808000  
13600000000   -6.2158980    -123.3278000  -1.6505680    85.4471600    -19.7262900   141.7413000   -5.6217320    -115.6298000  
13625000000   -6.2041140    -123.8489000  -1.6491930    84.2044300    -19.7469100   140.9297000   -5.5117190    -116.5022000  
13650000000   -6.2258160    -124.5510000  -1.6962080    83.1982900    -19.6658100   139.9862000   -5.5239300    -116.6694000  
13675000000   -6.2271540    -125.3435000  -1.6813000    81.8046400    -19.6621700   138.4622000   -5.5441600    -117.8312000  
13700000000   -6.2087930    -126.2330000  -1.7279870    80.6194800    -19.7171800   137.3957000   -5.6010830    -119.2233000  
13725000000   -6.1910900    -126.8478000  -1.7440570    79.6076900    -19.6739200   136.5672000   -5.5723450    -120.0684000  
13750000000   -6.1845400    -127.4497000  -1.7866940    78.2697600    -19.7057200   135.6201000   -5.6058980    -120.6510000  
13775000000   -6.2192260    -128.1507000  -1.7892460    77.4648100    -19.5945800   134.6474000   -5.6165680    -121.4319000  
13800000000   -6.1793620    -128.7704000  -1.8030290    75.8806600    -19.5805000   133.3825000   -5.6309790    -123.2271000  
13825000000   -6.1676340    -129.2114000  -1.8279610    74.8396800    -19.6021500   132.2976000   -5.5953000    -124.3510000  
13850000000   -6.1708760    -129.5948000  -1.8687370    73.5990200    -19.5743000   130.8626000   -5.6154590    -125.0343000  
13875000000   -6.1994830    -130.2724000  -1.8911770    72.5825000    -19.6051300   130.0307000   -5.7043450    -125.8056000  
13900000000   -6.2171840    -131.0226000  -1.8895490    71.3720800    -19.5662700   128.8448000   -5.7267960    -127.6716000  
13925000000   -6.2207000    -131.6897000  -1.9270310    70.0582300    -19.5607100   128.0017000   -5.6614440    -129.1454000  
13950000000   -6.2565430    -131.9825000  -1.9166310    68.9541900    -19.5129900   126.6186000   -5.5663790    -129.7309000  
13975000000   -6.3169070    -132.7720000  -2.0017730    67.7626400    -19.5381000   125.5978000   -5.6300420    -129.6782000  
14000000000   -6.3732660    -133.8214000  -1.9600950    66.7083300    -19.5312800   124.4917000   -5.7018900    -130.1590000  
14025000000   -6.3973150    -134.8914000  -2.0237960    65.4476900    -19.4996100   123.5917000   -5.7895010    -131.4970000  
14050000000   -6.3938020    -135.6403000  -1.9961740    64.4546200    -19.4434000   122.7608000   -5.7264270    -132.5965000  
14075000000   -6.4146650    -136.0719000  -2.0070310    63.1083400    -19.4644500   121.3201000   -5.7093810    -133.6262000  
14100000000   -6.4956800    -136.8127000  -2.0533440    61.9912300    -19.4455400   120.5565000   -5.7730370    -134.0597000  
14125000000   -6.5243310    -137.9327000  -2.0406050    60.6932700    -19.4151700   119.2466000   -5.8601980    -135.0079000  
14150000000   -6.5260490    -139.1572000  -2.0796860    59.6084800    -19.4256800   118.4424000   -5.9241490    -135.9947000  
14175000000   -6.5182210    -139.7680000  -2.0614780    58.3644900    -19.3567400   117.4808000   -5.9244220    -137.3792000  
14200000000   -6.5285400    -140.3832000  -2.0921290    57.3665400    -19.3581000   116.2653000   -5.9216520    -138.6444000  
14225000000   -6.5612340    -140.9269000  -2.0951310    56.0459200    -19.2778200   115.1693000   -5.9032440    -139.7790000  
14250000000   -6.6041130    -141.8526000  -2.1068730    54.9653100    -19.3130400   114.1666000   -5.9249670    -140.3752000  
14275000000   -6.6362180    -142.7502000  -2.1156280    53.8089500    -19.2696800   113.3289000   -5.9524700    -140.8717000  
14300000000   -6.6493860    -143.6188000  -2.1318840    52.4401700    -19.2542300   112.4222000   -6.0652470    -141.8420000  
14325000000   -6.6728090    -144.2152000  -2.1144940    51.6398500    -19.1587500   111.1307000   -6.0303870    -143.1547000  
14350000000   -6.6917330    -144.9566000  -2.1103370    50.0329500    -19.1424400   110.0809000   -5.9931060    -144.6020000  
14375000000   -6.7327810    -145.6635000  -2.1289810    49.1129400    -19.0881500   108.9890000   -5.9663910    -144.7552000  
14400000000   -6.7482840    -146.2321000  -2.1243270    47.7972800    -19.0628400   107.7688000   -6.0554890    -145.2078000  
14425000000   -6.8016950    -147.0011000  -2.1199120    46.6278300    -19.0532500   106.6376000   -6.2071420    -146.2930000  
14450000000   -6.8490590    -147.8028000  -2.1218740    45.1804300    -19.0341400   105.5737000   -6.2534240    -148.4049000  
14475000000   -6.9037440    -148.3655000  -2.1534710    44.0785200    -18.9851200   104.6889000   -6.2248070    -149.4931000  
14500000000   -6.9489730    -148.7308000  -2.1063970    42.9275300    -18.9018900   103.4959000   -6.1776770    -149.9597000  
14525000000   -6.9949300    -149.5547000  -2.1477220    41.5923500    -18.9186000   102.1193000   -6.2793050    -150.4372000  
14550000000   -7.0880360    -150.1480000  -2.1103960    40.5030900    -18.8462100   101.2253000   -6.3587000    -151.5928000  
14575000000   -7.1763130    -151.1008000  -2.1172310    39.1423100    -18.8033000   99.9598400    -6.3889950    -153.2718000  
14600000000   -7.2430210    -152.0885000  -2.1118480    37.9812200    -18.7461600   98.7323200    -6.3648930    -154.2043000  
14625000000   -7.3148750    -152.8478000  -2.1051510    36.6495100    -18.6953900   97.5860100    -6.4309350    -154.9394000  
14650000000   -7.3959150    -153.5848000  -2.0970810    35.4931000    -18.7031000   96.3677800    -6.4746480    -155.6270000  
14675000000   -7.4987820    -154.5553000  -2.0522590    33.9290200    -18.6366600   95.1021000    -6.5576350    -156.7671000  
14700000000   -7.6416990    -155.9449000  -2.0584180    32.7202700    -18.6063600   93.8251800    -6.6129010    -157.7531000  
14725000000   -7.7052140    -157.3178000  -2.0286400    30.9956300    -18.5619700   92.4368100    -6.7059010    -159.3930000  
14750000000   -7.8155250    -158.5214000  -2.0624560    29.6979600    -18.5490800   91.4670900    -6.8301570    -160.9938000  
14775000000   -7.9051370    -159.3078000  -2.0465520    28.4160400    -18.4681000   90.2236800    -6.8171870    -162.5902000  
14800000000   -8.0548990    -160.6842000  -2.0537620    26.9485600    -18.4496900   88.6951100    -6.8356700    -163.8112000  
14825000000   -8.1959420    -162.3368000  -2.0497970    25.5475400    -18.4109500   87.4958800    -6.8945830    -165.2401000  
14850000000   -8.2528780    -164.0805000  -2.0584460    23.7941000    -18.4145300   85.9462300    -7.0297840    -167.3165000  
14875000000   -8.3128480    -165.2174000  -2.0693240    22.9409600    -18.3471100   84.7736500    -7.0346540    -168.9331000  
14900000000   -8.3886130    -166.3858000  -2.0534840    21.3815000    -18.3432900   83.5120900    -6.9608790    -170.3441000  
14925000000   -8.5184420    -167.7066000  -2.0310280    20.2657600    -18.2572800   82.3959000    -6.9543610    -170.9952000  
14950000000   -8.5973560    -169.7684000  -2.0334040    18.4409700    -18.1919100   80.9542500    -7.0321870    -172.6788000  
14975000000   -8.6518970    -171.4615000  -2.0408840    17.1936500    -18.1539900   79.4622500    -7.0895310    -174.6435000  
15000000000   -8.6636240    -173.1576000  -2.0281550    15.7309100    -18.1734000   77.8749000    -7.0310680    -176.4487000  
15025000000   -8.7593640    -174.6210000  -2.0543730    14.3240200    -18.1811000   77.0897900    -7.0572180    -177.1138000  
15050000000   -8.8392370    -176.0981000  -1.9932900    12.9074800    -18.1060200   75.5018300    -7.0898220    -178.2813000  
15075000000   -8.9236150    -177.8273000  -2.0499660    11.2071700    -18.0738200   74.2574200    -7.1869510    179.4749000   
15100000000   -8.9760120    -179.3535000  -2.0275000    9.8079030     -18.0162400   72.9192900    -7.0616150    177.4102000   
15125000000   -9.0702940    178.8276000   -2.0636680    8.1946000     -18.0219600   71.3910400    -6.9871260    176.1471000   
15150000000   -9.2063940    177.3214000   -2.0735520    7.0201170     -17.9990200   70.1822900    -7.0567920    175.7437000   
15175000000   -9.2719040    175.3728000   -2.0743190    5.3994520     -18.0052900   68.7567100    -7.1870280    173.9683000   
15200000000   -9.3024160    173.9453000   -2.0814610    4.1326130     -17.9431100   67.6104000    -7.1620440    171.6320000   
15225000000   -9.3561970    172.3757000   -2.0958280    2.4906600     -17.9128000   66.2331800    -7.0005000    169.7748000   
15250000000   -9.4867500    170.6354000   -2.1052080    1.3000990     -17.8919300   64.8207300    -6.9534140    169.6846000   
15275000000   -9.6126870    168.7533000   -2.0868710    -0.3655986    -17.9082300   63.3686600    -7.0877190    168.8340000   
15300000000   -9.7132450    166.5529000   -2.1284220    -1.7867670    -17.8986500   62.4845600    -7.2874150    167.0603000   
15325000000   -9.7677230    164.6525000   -2.1025120    -3.2270510    -17.7699600   61.2578300    -7.1806830    164.9389000   
15350000000   -9.7939900    162.9733000   -2.1026720    -4.8699970    -17.7456600   59.3811300    -7.0373310    163.3634000   
15375000000   -9.9220300    160.5721000   -2.0865530    -6.3923450    -17.7209200   57.9598300    -7.0169220    162.4624000   
15400000000   -10.0296700   158.0889000   -2.1365960    -8.1808640    -17.7443500   56.4246300    -7.1726070    161.0104000   
15425000000   -10.1399400   155.4152000   -2.1528280    -9.3756910    -17.7210400   55.3849300    -7.2212680    159.3956000   
15450000000   -10.1583800   152.8380000   -2.1669850    -11.1514400   -17.6589100   53.8572300    -7.1761030    157.6474000   
15475000000   -10.1905300   150.5116000   -2.1893540    -12.5783600   -17.6434000   52.4174300    -7.1368650    156.4093000   
15500000000   -10.2218700   147.9701000   -2.2111550    -14.1614700   -17.6366000   50.6596100    -7.1430460    154.5224000   
15525000000   -10.3383200   145.6462000   -2.2538840    -15.6559500   -17.6377000   49.5374400    -7.1540840    153.0016000   
15550000000   -10.3358500   142.7925000   -2.2345800    -17.1759500   -17.6383200   48.0534900    -7.1028160    151.8813000   
15575000000   -10.2934200   140.4189000   -2.2780840    -18.5440000   -17.5906000   46.8142100    -7.1529250    150.9579000   
15600000000   -10.2267600   138.3799000   -2.2394380    -20.1199900   -17.5245100   45.2251300    -7.2069630    149.1371000   
15625000000   -10.2887600   135.9747000   -2.3135050    -21.7243500   -17.5875000   43.5536700    -7.2214180    146.5735000   
15650000000   -10.3227100   133.8201000   -2.3034670    -23.2044400   -17.5627000   42.6389500    -7.1306240    144.9663000   
15675000000   -10.2426300   130.9342000   -2.3111610    -24.8525500   -17.5401600   40.7418200    -7.1183880    144.2013000   
15700000000   -10.1386200   128.6209000   -2.3356100    -26.4517400   -17.5533500   39.6049200    -7.2796070    142.6984000   
15725000000   -10.0987100   127.4390000   -2.3468260    -27.8634900   -17.4881800   38.2243500    -7.4075000    139.7330000   
15750000000   -10.1664400   125.4332000   -2.3871360    -29.4468900   -17.5003200   36.7043300    -7.2407590    136.6183000   
15775000000   -10.2165700   122.6957000   -2.3782040    -31.2990600   -17.5077500   34.9184500    -7.0360170    134.7703000   
15800000000   -10.2164900   119.5918000   -2.4569090    -32.6648300   -17.4957400   33.9902200    -7.0656430    134.1799000   
15825000000   -10.0491800   117.6512000   -2.4634080    -34.5254700   -17.4541400   32.3205400    -7.1285000    132.4179000   
15850000000   -10.0342300   115.7764000   -2.5473990    -35.8921200   -17.4933200   30.9240500    -7.1528230    129.8838000   
15875000000   -10.1064100   114.2526000   -2.5408790    -37.2614900   -17.4491300   29.4168700    -6.9024400    128.0536000   
15900000000   -10.1326000   111.1119000   -2.5630390    -38.9254200   -17.4695100   27.5989600    -6.7815090    127.0770000   
15925000000   -10.0627100   108.0925000   -2.5656660    -40.3375900   -17.4457400   26.2412000    -6.8010750    126.3306000   
15950000000   -9.9285070    105.6848000   -2.6152920    -42.3470300   -17.4986700   24.8113700    -6.9193770    124.3095000   
15975000000   -10.0215500   103.6575000   -2.6593770    -43.6521000   -17.4872200   23.7269100    -6.8581910    122.3665000   
16000000000   -10.0374800   100.8971000   -2.6858000    -45.1891800   -17.4185000   22.1226800    -6.7545840    120.6679000   
16025000000   -9.9536430    97.3987800    -2.6926560    -46.6278600   -17.4113700   20.4887800    -6.6903950    119.4078000   
16050000000   -9.7866100    94.2422500    -2.7308210    -48.6404500   -17.4524700   18.7005100    -6.6825210    117.1720000   
16075000000   -9.6722900    91.9357200    -2.7963320    -50.1842100   -17.4591200   17.1643600    -6.6653530    115.4581000   
16100000000   -9.6130550    89.2320300    -2.8281580    -52.0507100   -17.5264300   15.5592300    -6.5966530    113.7056000   
16125000000   -9.4856320    85.6856800    -2.9237970    -53.2963600   -17.5120300   14.3811600    -6.5872250    112.5030000   
16150000000   -9.2521610    83.1017000    -2.8954090    -55.2453400   -17.4558400   12.6618200    -6.4455370    110.4589000   
16175000000   -9.0266090    81.1143000    -2.9953890    -57.4488300   -17.5083000   11.4519700    -6.4022350    107.9972000   
16200000000   -8.8624910    79.2160800    -3.0212500    -58.9918800   -17.5508500   9.6792500     -6.3118150    107.0296000   
16225000000   -8.7674660    76.8327900    -3.0921250    -60.1423600   -17.5502700   8.3224710     -6.3413380    106.3703000   
16250000000   -8.5589590    74.0901200    -3.1534080    -61.5085200   -17.5712500   7.2527750     -6.3767350    105.3028000   
16275000000   -8.2920390    72.4904800    -3.1845420    -63.3010900   -17.6108800   5.4695970     -6.3758040    102.8771000   
16300000000   -8.1290450    70.9643600    -3.2399120    -64.9442900   -17.6672600   3.2897790     -6.2622280    100.3035000   
16325000000   -8.0520320    69.3027700    -3.3030390    -67.0460400   -17.7350200   1.5145270     -6.2528930    98.1962100    
16350000000   -7.9625210    66.9162800    -3.4245770    -68.1526900   -17.7095800   1.0871420     -6.3249790    97.1308100    
16375000000   -7.6976100    65.1343900    -3.4373710    -69.9909700   -17.6804800   -1.2358570    -6.2385850    94.9415600    
16400000000   -7.5082850    63.7974600    -3.5273790    -71.6467300   -17.7657100   -2.5536300    -6.1671250    92.6555200    
16425000000   -7.4412380    62.7865100    -3.5655490    -73.1143300   -17.7383600   -4.0784800    -6.0172910    90.9402700    
16450000000   -7.3921070    60.8664900    -3.6628900    -75.0491000   -17.8715400   -5.8759130    -6.0393640    89.1251900    
16475000000   -7.2731060    58.6861100    -3.7614480    -76.3057800   -17.9340400   -6.6538410    -6.0367260    87.5073200    
16500000000   -7.0476550    57.1818200    -3.8495880    -77.9915300   -17.9600600   -8.2203220    -5.9316400    85.4307300    
16525000000   -6.9751300    56.2748600    -3.8879590    -79.2300600   -17.9479000   -9.3736720    -5.7728240    84.0657800    
16550000000   -6.9301400    54.8928600    -3.9553220    -80.8485300   -17.9062800   -11.1360100   -5.7179530    82.8920100    
16575000000   -6.8436140    52.6629400    -3.9838490    -82.4520200   -18.0298600   -12.9069500   -5.7059590    81.3936800    
16600000000   -6.6877580    50.3949600    -4.1092970    -84.1467600   -18.0857000   -13.7171900   -5.7256120    79.3399700    
16625000000   -6.4793400    48.7085600    -4.1754750    -85.5736500   -18.1039000   -15.5137100   -5.6341210    77.7182800    
16650000000   -6.4236640    47.3257000    -4.2520710    -87.2718400   -18.1868400   -16.6920900   -5.4889500    75.7791200    
16675000000   -6.3359190    45.8993500    -4.3301890    -88.6776800   -18.1901600   -18.4054800   -5.4227100    74.3750400    
16700000000   -6.2021980    43.8576200    -4.4043480    -90.2881300   -18.3040000   -19.5763000   -5.3958450    72.5752600    
16725000000   -5.9978090    42.2943800    -4.5445240    -91.8832200   -18.3886200   -20.9406000   -5.3444040    71.1157200    
16750000000   -5.8551540    41.2085000    -4.6152060    -93.2183900   -18.3253900   -22.0285900   -5.2148780    69.8263200    
16775000000   -5.7573450    39.9700700    -4.7189380    -94.9700800   -18.4252300   -23.6632400   -5.0680480    68.0657000    
16800000000   -5.6532370    38.3895500    -4.8143680    -96.2658700   -18.4728500   -25.1448100   -4.9654560    67.0907500    
16825000000   -5.5158720    36.7536000    -4.9110870    -97.9180000   -18.5920700   -26.6425600   -4.8941620    66.1221800    
16850000000   -5.3652200    35.9397000    -4.9930770    -99.0990900   -18.5861900   -27.8889200   -4.9203150    65.1763200    
16875000000   -5.2365660    35.1471300    -5.0896160    -100.7832000  -18.6408600   -29.0461800   -4.9877850    63.5232300    
16900000000   -5.1598310    34.1139200    -5.1547790    -101.8195000  -18.6200100   -30.3895200   -4.8820770    62.1253800    
16925000000   -5.0308640    32.9586000    -5.2485170    -103.5992000  -18.7278300   -31.8798300   -4.7460750    60.1933200    
16950000000   -4.8698580    31.8264000    -5.3689960    -105.1574000  -18.7856800   -33.3702800   -4.7206760    59.0935700    
16975000000   -4.7542470    31.2169900    -5.4204990    -106.6306000  -18.8915000   -35.2331600   -4.7621130    57.5350200    
17000000000   -4.6739880    30.3020600    -5.5700480    -108.2593000  -19.0013600   -36.3101700   -4.8244650    55.4231000    
17025000000   -4.6030150    29.2860800    -5.6474760    -109.3998000  -19.0065900   -37.2373500   -4.6839180    53.5920900    
17050000000   -4.4746320    28.2187900    -5.7835680    -110.9986000  -19.0386500   -39.0867300   -4.5220270    52.2343500    
17075000000   -4.3714210    27.4965500    -5.9062440    -112.4669000  -19.1912900   -40.1023600   -4.4762630    51.4535400    
17100000000   -4.2874290    27.0399400    -6.0628790    -114.0043000  -19.3373700   -41.3038400   -4.5440590    50.2490900    
17125000000   -4.2562290    26.4339300    -6.1559830    -114.8382000  -19.3341900   -41.8323300   -4.5847230    48.9472700    
17150000000   -4.2238000    25.5499500    -6.2412160    -116.2267000  -19.3725900   -43.6907000   -4.4498190    47.2797200    
17175000000   -4.1423620    24.7374600    -6.3755430    -117.2729000  -19.4821000   -44.7361600   -4.3265390    46.2448100    
17200000000   -4.0412840    24.2178300    -6.4270220    -118.7944000  -19.5751800   -46.2350000   -4.2734580    44.8326000    
17225000000   -3.9940010    23.7843600    -6.5728440    -119.8526000  -19.6879600   -47.1519200   -4.3295920    43.6733400    
17250000000   -3.9908200    23.1255700    -6.6417420    -121.0821000  -19.7533300   -47.4285500   -4.3138510    42.2165000    
17275000000   -3.9551860    22.1607100    -6.7228870    -122.0341000  -19.6943600   -48.7934500   -4.2592470    40.8372000    
17300000000   -3.8927730    21.3376100    -6.8078050    -123.3346000  -19.7407000   -49.8846000   -4.1477560    39.3713500    
17325000000   -3.8166090    20.5890000    -6.9421530    -124.5866000  -19.8229100   -51.1105100   -4.0614670    38.1163600    
17350000000   -3.7584600    20.0997100    -7.0123720    -125.5444000  -19.8506500   -52.4208500   -3.9930570    37.6972900    
17375000000   -3.7183390    19.3279200    -7.0831690    -126.8989000  -19.9225700   -53.6007800   -3.9741250    36.8891200    
17400000000   -3.6744670    18.4311700    -7.1499180    -127.8340000  -19.9636000   -54.3805900   -3.9361970    35.8553400    
17425000000   -3.6082680    17.5031500    -7.2105980    -129.7493000  -20.0284800   -56.0556100   -3.8267540    33.9951600    
17450000000   -3.5692840    16.7461100    -7.3636980    -130.8984000  -20.1351200   -56.5607200   -3.7020670    33.1253100    
17475000000   -3.5245870    16.0002900    -7.4367230    -131.8191000  -20.1601500   -57.9156700   -3.6283230    33.1399500    
17500000000   -3.4937700    15.2282000    -7.5494250    -132.8270000  -20.2522800   -58.6581200   -3.7214670    32.9192700    
17525000000   -3.4442820    14.4337200    -7.6007430    -134.1647000  -20.2318300   -59.9124300   -3.7189390    31.2512400    
17550000000   -3.3788650    13.9079700    -7.7177380    -135.4029000  -20.2307900   -60.9320000   -3.6522750    29.4807000    
17575000000   -3.3279290    13.3266500    -7.8039440    -136.6636000  -20.3608900   -62.6784100   -3.4947170    28.4800600    
17600000000   -3.2820280    12.8596600    -7.9171840    -137.8957000  -20.4853800   -63.7830300   -3.4816050    28.1703000    
17625000000   -3.2562640    12.3627600    -7.9816180    -138.7943000  -20.5032200   -64.8216900   -3.5657660    27.6381500    
17650000000   -3.2150940    11.6597900    -8.0838550    -140.2040000  -20.6195800   -65.1611100   -3.6012950    26.0129100    
17675000000   -3.1653830    11.1767000    -8.1626900    -141.1001000  -20.5892100   -66.4613600   -3.4699830    24.7168200    
17700000000   -3.1225500    10.7227200    -8.2933000    -142.3701000  -20.6297000   -67.4004000   -3.3628970    24.1499100    
17725000000   -3.0984030    10.2074700    -8.3730690    -143.3348000  -20.7741800   -68.8785600   -3.3923030    24.0466200    
17750000000   -3.0869420    9.6049400     -8.4275350    -144.6887000  -20.8428400   -69.4472200   -3.4805010    22.9227900    
17775000000   -3.0760610    9.0193000     -8.5505150    -145.3597000  -20.8329600   -69.9304300   -3.4966980    21.8373200    
17800000000   -3.0122180    8.4592840     -8.5583430    -146.5980000  -20.8300300   -71.6138900   -3.3866680    20.8908000    
17825000000   -2.9871020    7.9756920     -8.7035060    -147.8956000  -20.9477200   -72.5268900   -3.4190490    20.0044300    
17850000000   -2.9976210    7.6017100     -8.7796410    -148.7793000  -20.9951400   -73.7158800   -3.4864220    18.9081900    
17875000000   -3.0084170    7.1348810     -8.8431420    -149.9892000  -21.0931800   -74.5843800   -3.5270660    17.1756000    
17900000000   -2.9904850    6.6747390     -8.9136060    -150.8605000  -21.0961900   -74.7872700   -3.4328370    16.1526400    
17925000000   -2.9526380    6.1914240     -9.0614100    -152.1149000  -21.1542100   -75.7055600   -3.3779150    15.1056000    
17950000000   -2.9419700    5.8688880     -9.1020590    -152.7539000  -21.1405500   -76.4910400   -3.3333600    14.4798300    
17975000000   -2.9454040    5.3783980     -9.1797190    -154.1300000  -21.2124900   -78.0578700   -3.3019800    12.8158000    
18000000000   -2.9550220    4.7471990     -9.2699040    -154.6598000  -21.2453100   -78.5016100   -3.2669100    11.9004000    
